"Sample Index, EXG Channel 0, EXG Channel 1, EXG Channel 2, EXG Channel 3, EXG Channel 4, EXG Channel 5, EXG Channel 6, EXG Channel 7, Accel Channel 0, Accel Channel 1, Accel Channel 2, Other, Other, Other, Other, Other, Other, Other, Analog Channel 0, Analog Channel 1, Analog Channel 2, Timestamp, Other, Timestamp (Formatted)"
"224.0, -1893.6844937425249, -1896.2549443548853, -1891.7398919749132, -1895.8526129546897, -1892.6563134975809, -1885.7943279498015, -1894.3550460761842, -1892.298685586296, 0.028, 0.986, 0.176, 192.0, 0.0, 224.0, 30.0, 208.0, 5.0, 128.0, 0.0, 0.0, 0.0, 1.645905776067458E9, 0.0, 2022-02-26 15:02:56.067"
"225.0, -1893.4833280424273, -1896.6349240106256, -1891.6281332526366, -1895.8973164436004, -1892.6563134975809, -1885.615513994159, -1894.265639098363, -1892.23163035293, 0.028, 0.986, 0.176, 192.0, 0.0, 0.0, 0.0, 0.0, 0.0, 0.0, 0.0, 0.0, 0.0, 1.645905776067462E9, 0.0, 2022-02-26 15:02:56.067"
"226.0, -1893.7962524648015, -1896.4561100549831, -1891.7398919749132, -1895.5620402767709, -1892.23163035293, -1885.7049209719803, -1894.0197699093546, -1891.941057675011, 0.028, 0.986, 0.176, 192.0, 0.0, 0.0, 0.0, 0.0, 0.0, 0.0, 0.0, 0.0, 0.0, 1.645905776067465E9, 0.0, 2022-02-26 15:02:56.067"
"227.0, -1893.6621419980697, -1896.3443513327065, -1891.9187059305557, -1895.718502487958, -1892.3657408196618, -1885.9507901609886, -1894.0197699093546, -1891.941057675011, 0.028, 0.986, 0.176, 192.0, 0.0, 0.0, 0.0, 0.0, 0.0, 0.0, 0.0, 0.0, 0.0, 1.645905776067468E9, 0.0, 2022-02-26 15:02:56.067"
"0.0, 0.0, 0.0, 0.0, 0.0, 0.0, 0.0, 0.0, 0.0, 0.028, 0.986, 0.176, 192.0, 0.0, 0.0, 0.0, 0.0, 0.0, 0.0, 0.0, 0.0, 0.0, 1.645905776150497E9, 0.0, 2022-02-26 15:02:56.150"
"1.0, 1845.1588565300533, 1841.9625570729445, 1849.1821705320085, 1844.1530280295644, 1844.6000629186706, 1851.9314351000114, 1845.27061525233, 1849.137467043098, 0.026000000000000002, 0.98, 0.182, 192.0, 0.0, 208.0, 30.0, 160.0, 5.0, 176.0, 0.0, 0.0, 0.0, 1.645905776165211E9, 0.0, 2022-02-26 15:02:56.165"
"2.0, 1845.1588565300533, 1842.163722773042, 1849.360984487651, 1844.3765454741176, 1844.9353390855003, 1851.9314351000114, 1845.2259117634192, 1849.003356576366, 0.026000000000000002, 0.98, 0.182, 192.0, 0.0, 0.0, 0.0, 0.0, 0.0, 0.0, 0.0, 0.0, 0.0, 1.645905776171539E9, 0.0, 2022-02-26 15:02:56.171"
"3.0, 1845.1588565300533, 1842.36488847314, 1849.4056879765617, 1844.4436007074835, 1845.27061525233, 1851.9537868444668, 1845.6282431636148, 1849.1821705320085, 0.026000000000000002, 0.98, 0.182, 192.0, 0.0, 0.0, 0.0, 0.0, 0.0, 0.0, 0.0, 0.0, 0.0, 1.645905776171548E9, 0.0, 2022-02-26 15:02:56.171"
"4.0, 1845.27061525233, 1842.2084262619528, 1849.293929254285, 1844.5330076853047, 1845.1141530411428, 1851.976138588922, 1845.4494292079723, 1849.2045222764639, 0.026000000000000002, 0.98, 0.182, 192.0, 0.0, 0.0, 0.0, 0.0, 0.0, 0.0, 0.0, 0.0, 0.0, 1.64590577617955E9, 0.0, 2022-02-26 15:02:56.179"
"5.0, 1845.2259117634192, 1842.2084262619528, 1849.2268740209192, 1844.264786751841, 1844.8459321076791, 1852.1549525445644, 1845.4494292079723, 1849.2492257653746, 0.026000000000000002, 0.98, 0.182, 192.0, 0.0, 0.0, 0.0, 0.0, 0.0, 0.0, 0.0, 0.0, 0.0, 1.645905776179559E9, 0.0, 2022-02-26 15:02:56.179"
"6.0, 1845.203560018964, 1842.141371028587, 1849.2715775098297, 1844.108324540654, 1844.7118216409472, 1852.0878973111985, 1845.2929669967853, 1849.3386327431958, 0.026000000000000002, 0.98, 0.182, 192.0, 0.0, 0.0, 0.0, 0.0, 0.0, 0.0, 0.0, 0.0, 0.0, 1.645905776187613E9, 0.0, 2022-02-26 15:02:56.187"
"7.0, 1845.3153187412404, 1842.163722773042, 1849.2492257653746, 1844.2200832629305, 1844.912987341045, 1851.909083355556, 1845.3153187412404, 1849.1151152986426, 0.026000000000000002, 0.98, 0.182, 192.0, 0.0, 0.0, 0.0, 0.0, 0.0, 0.0, 0.0, 0.0, 0.0, 1.645905776187623E9, 0.0, 2022-02-26 15:02:56.187"
"8.0, 1845.1141530411428, 1841.9178535840338, 1849.0927635541873, 1844.264786751841, 1844.9576908299555, 1852.1326008001092, 1845.27061525233, 1849.3386327431958, 0.03, 0.972, 0.196, 192.0, 0.0, 240.0, 30.0, 96.0, 6.0, 32.0, 0.0, 0.0, 0.0, 1.645905776194514E9, 0.0, 2022-02-26 15:02:56.194"
"9.0, 1844.8235803632238, 1842.007260561855, 1848.9139495985448, 1844.3094902407518, 1844.9353390855003, 1852.0208420778326, 1845.6058914191594, 1849.2492257653746, 0.03, 0.972, 0.196, 192.0, 0.0, 0.0, 0.0, 0.0, 0.0, 0.0, 0.0, 0.0, 0.0, 1.645905776194539E9, 0.0, 2022-02-26 15:02:56.194"
"10.0, 1845.0023943188662, 1842.0743157952209, 1849.2268740209192, 1844.4212489630281, 1844.8235803632238, 1852.043193822288, 1845.6505949080702, 1849.360984487651, 0.03, 0.972, 0.196, 192.0, 0.0, 0.0, 0.0, 0.0, 0.0, 0.0, 0.0, 0.0, 0.0, 1.645905776202515E9, 0.0, 2022-02-26 15:02:56.202"
"11.0, 1845.1812082745087, 1842.0966675396762, 1849.4727432099276, 1844.4436007074835, 1845.069449552232, 1851.8643798666455, 1845.8070571192573, 1849.4056879765617, 0.03, 0.972, 0.196, 192.0, 0.0, 0.0, 0.0, 0.0, 0.0, 0.0, 0.0, 0.0, 0.0, 1.645905776202533E9, 0.0, 2022-02-26 15:02:56.202"
"12.0, 1844.9353390855003, 1842.3201849842294, 1849.1821705320085, 1844.2200832629305, 1845.0918012966874, 1851.7749728888243, 1845.3376704856958, 1849.0927635541873, 0.03, 0.972, 0.196, 192.0, 0.0, 0.0, 0.0, 0.0, 0.0, 0.0, 0.0, 0.0, 0.0, 1.645905776210221E9, 0.0, 2022-02-26 15:02:56.210"
"13.0, 1845.0470978077767, 1842.4319437065058, 1849.293929254285, 1844.3541937296623, 1845.136504785598, 1852.1773042890197, 1845.3600222301511, 1849.293929254285, 0.03, 0.972, 0.196, 192.0, 0.0, 0.0, 0.0, 0.0, 0.0, 0.0, 0.0, 0.0, 0.0, 1.645905776210259E9, 0.0, 2022-02-26 15:02:56.210"
"14.0, 1845.1588565300533, 1842.3201849842294, 1849.2715775098297, 1844.4659524519388, 1845.0023943188662, 1852.0878973111985, 1845.5388361857936, 1849.137467043098, 0.03, 0.972, 0.196, 192.0, 0.0, 0.0, 0.0, 0.0, 0.0, 0.0, 0.0, 0.0, 0.0, 1.645905776217494E9, 0.0, 2022-02-26 15:02:56.217"
"15.0, 1845.0247460633216, 1842.4095919620506, 1849.4056879765617, 1844.4436007074835, 1845.27061525233, 1852.1773042890197, 1845.5388361857936, 1849.0480600652768, 0.03, 0.972, 0.196, 192.0, 0.0, 0.0, 0.0, 0.0, 0.0, 0.0, 0.0, 0.0, 0.0, 1.64590577621751E9, 0.0, 2022-02-26 15:02:56.217"
"16.0, 1845.1812082745087, 1842.2307780064082, 1849.4727432099276, 1844.398897218573, 1844.9576908299555, 1851.8867316111007, 1845.4717809524277, 1849.1151152986426, 0.03, 0.972, 0.196, 192.0, 0.0, 0.0, 0.0, 0.0, 0.0, 0.0, 0.0, 0.0, 0.0, 1.64590577622411E9, 0.0, 2022-02-26 15:02:56.224"
"17.0, 1845.4494292079723, 1842.521350684327, 1849.5621501877488, 1844.6000629186706, 1845.069449552232, 1851.976138588922, 1845.717650141436, 1849.5621501877488, 0.03, 0.972, 0.196, 192.0, 0.0, 0.0, 0.0, 0.0, 0.0, 0.0, 0.0, 0.0, 0.0, 1.645905776231815E9, 0.0, 2022-02-26 15:02:56.231"
"18.0, 1845.2259117634192, 1842.297833239774, 1849.1821705320085, 1844.6000629186706, 1844.8906355965896, 1852.1102490556539, 1845.6729466525253, 1849.4727432099276, 0.028, 0.962, 0.2, 192.0, 0.0, 224.0, 30.0, 16.0, 6.0, 64.0, 0.0, 0.0, 0.0, 1.645905776231823E9, 0.0, 2022-02-26 15:02:56.231"
"19.0, 1845.0470978077767, 1842.2531297508633, 1849.1821705320085, 1844.622414663126, 1844.8459321076791, 1852.043193822288, 1845.7400018858914, 1849.360984487651, 0.028, 0.962, 0.2, 192.0, 0.0, 0.0, 0.0, 0.0, 0.0, 0.0, 0.0, 0.0, 0.0, 1.645905776240101E9, 0.0, 2022-02-26 15:02:56.240"
"20.0, 1845.203560018964, 1842.36488847314, 1849.360984487651, 1844.4436007074835, 1844.9800425744108, 1851.909083355556, 1845.427077463517, 1849.4503914654722, 0.028, 0.962, 0.2, 192.0, 0.0, 0.0, 0.0, 0.0, 0.0, 0.0, 0.0, 0.0, 0.0, 1.645905776240121E9, 0.0, 2022-02-26 15:02:56.240"
"21.0, 1845.27061525233, 1842.2307780064082, 1849.1151152986426, 1844.5330076853047, 1844.9800425744108, 1851.909083355556, 1845.3823739746065, 1849.2715775098297, 0.028, 0.962, 0.2, 192.0, 0.0, 0.0, 0.0, 0.0, 0.0, 0.0, 0.0, 0.0, 0.0, 1.645905776246515E9, 0.0, 2022-02-26 15:02:56.246"
"22.0, 1845.0247460633216, 1842.2754814953187, 1849.2268740209192, 1844.5106559408493, 1844.8459321076791, 1852.0655455667431, 1845.4717809524277, 1849.3386327431958, 0.028, 0.962, 0.2, 192.0, 0.0, 0.0, 0.0, 0.0, 0.0, 0.0, 0.0, 0.0, 0.0, 1.645905776246526E9, 0.0, 2022-02-26 15:02:56.246"
"23.0, 1845.0470978077767, 1842.3425367286845, 1849.3386327431958, 1844.55535942976, 1844.8682838521343, 1852.1549525445644, 1845.5388361857936, 1849.1598187875534, 0.028, 0.962, 0.2, 192.0, 0.0, 0.0, 0.0, 0.0, 0.0, 0.0, 0.0, 0.0, 0.0, 1.645905776257148E9, 0.0, 2022-02-26 15:02:56.257"
"24.0, 1844.8906355965896, 1842.4095919620506, 1849.293929254285, 1844.6000629186706, 1845.0023943188662, 1851.8643798666455, 1845.561187930249, 1849.2045222764639, 0.028, 0.962, 0.2, 192.0, 0.0, 0.0, 0.0, 0.0, 0.0, 0.0, 0.0, 0.0, 0.0, 1.645905776257176E9, 0.0, 2022-02-26 15:02:56.257"
"25.0, 1844.8235803632238, 1842.3201849842294, 1849.2715775098297, 1844.55535942976, 1844.8906355965896, 1851.976138588922, 1845.5388361857936, 1849.2492257653746, 0.028, 0.962, 0.2, 192.0, 0.0, 0.0, 0.0, 0.0, 0.0, 0.0, 0.0, 0.0, 0.0, 1.645905776262672E9, 0.0, 2022-02-26 15:02:56.262"
"26.0, 1845.0918012966874, 1842.36488847314, 1849.2715775098297, 1844.6000629186706, 1845.0918012966874, 1852.1326008001092, 1845.7400018858914, 1849.4727432099276, 0.028, 0.962, 0.2, 192.0, 0.0, 0.0, 0.0, 0.0, 0.0, 0.0, 0.0, 0.0, 0.0, 1.645905776262686E9, 0.0, 2022-02-26 15:02:56.262"
"27.0, 1844.9353390855003, 1842.163722773042, 1849.428039721017, 1844.398897218573, 1845.0023943188662, 1852.043193822288, 1845.427077463517, 1849.2268740209192, 0.024, 0.968, 0.196, 192.0, 0.0, 192.0, 30.0, 64.0, 6.0, 32.0, 0.0, 0.0, 0.0, 1.645905776269824E9, 0.0, 2022-02-26 15:02:56.269"
"28.0, 1844.6671181520367, 1842.2307780064082, 1849.2045222764639, 1844.331841985207, 1844.8235803632238, 1851.909083355556, 1845.4494292079723, 1849.293929254285, 0.024, 0.968, 0.196, 192.0, 0.0, 0.0, 0.0, 0.0, 0.0, 0.0, 0.0, 0.0, 0.0, 1.645905776269837E9, 0.0, 2022-02-26 15:02:56.269"
"29.0, 1844.8235803632238, 1842.2307780064082, 1849.293929254285, 1844.4883041963942, 1844.8906355965896, 1851.8643798666455, 1845.6282431636148, 1849.2268740209192, 0.024, 0.968, 0.196, 192.0, 0.0, 0.0, 0.0, 0.0, 0.0, 0.0, 0.0, 0.0, 0.0, 1.645905776277012E9, 0.0, 2022-02-26 15:02:56.277"
"30.0, 1844.8682838521343, 1842.3201849842294, 1849.2045222764639, 1844.398897218573, 1845.0470978077767, 1851.9984903333773, 1845.5388361857936, 1849.0257083208214, 0.024, 0.968, 0.196, 192.0, 0.0, 0.0, 0.0, 0.0, 0.0, 0.0, 0.0, 0.0, 0.0, 1.64590577627702E9, 0.0, 2022-02-26 15:02:56.277"
"31.0, 1845.0247460633216, 1842.1860745174974, 1849.1151152986426, 1844.331841985207, 1845.0918012966874, 1851.752621144369, 1845.3600222301511, 1848.779839131813, 0.024, 0.968, 0.196, 192.0, 0.0, 0.0, 0.0, 0.0, 0.0, 0.0, 0.0, 0.0, 0.0, 1.64590577628416E9, 0.0, 2022-02-26 15:02:56.284"
"32.0, 1845.1588565300533, 1842.2084262619528, 1849.2045222764639, 1844.4436007074835, 1844.9576908299555, 1851.9314351000114, 1845.561187930249, 1849.0927635541873, 0.024, 0.968, 0.196, 192.0, 0.0, 0.0, 0.0, 0.0, 0.0, 0.0, 0.0, 0.0, 0.0, 1.64590577629223E9, 0.0, 2022-02-26 15:02:56.292"
"33.0, 1844.9800425744108, 1842.2754814953187, 1849.1821705320085, 1844.5106559408493, 1844.8012286187684, 1851.8643798666455, 1845.4941326968828, 1849.2492257653746, 0.024, 0.968, 0.196, 192.0, 0.0, 0.0, 0.0, 0.0, 0.0, 0.0, 0.0, 0.0, 0.0, 1.64590577629224E9, 0.0, 2022-02-26 15:02:56.292"
"34.0, 1845.0023943188662, 1842.1860745174974, 1849.2715775098297, 1844.4883041963942, 1844.9353390855003, 1852.043193822288, 1845.6058914191594, 1849.0927635541873, 0.024, 0.968, 0.196, 192.0, 0.0, 0.0, 0.0, 0.0, 0.0, 0.0, 0.0, 0.0, 0.0, 1.645905776299219E9, 0.0, 2022-02-26 15:02:56.299"
"35.0, 1845.2482635078745, 1842.0743157952209, 1849.1151152986426, 1844.3765454741176, 1845.0247460633216, 1851.976138588922, 1845.561187930249, 1849.0257083208214, 0.024, 0.968, 0.196, 192.0, 0.0, 0.0, 0.0, 0.0, 0.0, 0.0, 0.0, 0.0, 0.0, 1.645905776299246E9, 0.0, 2022-02-26 15:02:56.299"
"36.0, 1845.27061525233, 1842.0743157952209, 1849.0704118097321, 1844.3765454741176, 1845.203560018964, 1851.9984903333773, 1845.6505949080702, 1849.0927635541873, 0.024, 0.968, 0.196, 192.0, 0.0, 0.0, 0.0, 0.0, 0.0, 0.0, 0.0, 0.0, 0.0, 1.645905776306785E9, 0.0, 2022-02-26 15:02:56.306"
"37.0, 1845.203560018964, 1842.2531297508633, 1849.0704118097321, 1844.6447664075813, 1845.0247460633216, 1851.8420281221902, 1845.6282431636148, 1849.1151152986426, 0.014, 0.9580000000000001, 0.196, 192.0, 0.0, 112.0, 29.0, 240.0, 6.0, 32.0, 0.0, 0.0, 0.0, 1.645905776306796E9, 0.0, 2022-02-26 15:02:56.306"
"38.0, 1845.0247460633216, 1842.1190192841316, 1849.003356576366, 1844.4659524519388, 1844.8682838521343, 1851.976138588922, 1845.2929669967853, 1849.3386327431958, 0.014, 0.9580000000000001, 0.196, 192.0, 0.0, 0.0, 0.0, 0.0, 0.0, 0.0, 0.0, 0.0, 0.0, 1.645905776314807E9, 0.0, 2022-02-26 15:02:56.314"
"39.0, 1844.912987341045, 1842.163722773042, 1849.1151152986426, 1844.3094902407518, 1844.9800425744108, 1852.1102490556539, 1845.4941326968828, 1849.137467043098, 0.014, 0.9580000000000001, 0.196, 192.0, 0.0, 0.0, 0.0, 0.0, 0.0, 0.0, 0.0, 0.0, 0.0, 1.645905776314817E9, 0.0, 2022-02-26 15:02:56.314"
"40.0, 1845.0470978077767, 1842.141371028587, 1849.2045222764639, 1844.4212489630281, 1844.8682838521343, 1851.7079176554582, 1845.561187930249, 1849.1151152986426, 0.014, 0.9580000000000001, 0.196, 192.0, 0.0, 0.0, 0.0, 0.0, 0.0, 0.0, 0.0, 0.0, 0.0, 1.645905776322838E9, 0.0, 2022-02-26 15:02:56.322"
"41.0, 1845.136504785598, 1842.141371028587, 1849.3833362321063, 1844.4212489630281, 1844.8682838521343, 1851.909083355556, 1845.6058914191594, 1849.2492257653746, 0.014, 0.9580000000000001, 0.196, 192.0, 0.0, 0.0, 0.0, 0.0, 0.0, 0.0, 0.0, 0.0, 0.0, 1.645905776322845E9, 0.0, 2022-02-26 15:02:56.322"
"42.0, 1845.069449552232, 1842.36488847314, 1849.4056879765617, 1844.5330076853047, 1845.0247460633216, 1852.043193822288, 1845.4941326968828, 1849.2715775098297, 0.014, 0.9580000000000001, 0.196, 192.0, 0.0, 0.0, 0.0, 0.0, 0.0, 0.0, 0.0, 0.0, 0.0, 1.645905776329584E9, 0.0, 2022-02-26 15:02:56.329"
"43.0, 1844.8682838521343, 1842.2754814953187, 1849.4503914654722, 1844.4659524519388, 1844.912987341045, 1851.9537868444668, 1845.561187930249, 1849.293929254285, 0.014, 0.9580000000000001, 0.196, 192.0, 0.0, 0.0, 0.0, 0.0, 0.0, 0.0, 0.0, 0.0, 0.0, 1.645905776329604E9, 0.0, 2022-02-26 15:02:56.329"
"44.0, 1844.8682838521343, 1842.297833239774, 1849.4727432099276, 1844.6000629186706, 1845.0470978077767, 1852.0208420778326, 1845.3823739746065, 1849.2492257653746, 0.014, 0.9580000000000001, 0.196, 192.0, 0.0, 0.0, 0.0, 0.0, 0.0, 0.0, 0.0, 0.0, 0.0, 1.645905776337891E9, 0.0, 2022-02-26 15:02:56.337"
"45.0, 1844.756525129858, 1842.5660541732377, 1849.2268740209192, 1844.6671181520367, 1845.0918012966874, 1852.1549525445644, 1845.4941326968828, 1849.4503914654722, 0.014, 0.9580000000000001, 0.196, 192.0, 0.0, 0.0, 0.0, 0.0, 0.0, 0.0, 0.0, 0.0, 0.0, 1.645905776337925E9, 0.0, 2022-02-26 15:02:56.337"
"46.0, 1844.8459321076791, 1842.297833239774, 1849.2715775098297, 1844.1977315184752, 1844.9353390855003, 1851.9314351000114, 1845.4941326968828, 1849.2492257653746, 0.014, 0.9580000000000001, 0.196, 192.0, 0.0, 0.0, 0.0, 0.0, 0.0, 0.0, 0.0, 0.0, 0.0, 1.645905776344405E9, 0.0, 2022-02-26 15:02:56.344"
"47.0, 1844.8235803632238, 1842.36488847314, 1849.4727432099276, 1844.264786751841, 1844.8906355965896, 1851.9984903333773, 1845.4717809524277, 1849.360984487651, 0.008, 0.9580000000000001, 0.194, 192.0, 0.0, 64.0, 29.0, 240.0, 6.0, 16.0, 0.0, 0.0, 0.0, 1.645905776351651E9, 0.0, 2022-02-26 15:02:56.351"
"48.0, 1845.0470978077767, 1842.4095919620506, 1849.3386327431958, 1844.5777111742154, 1844.9576908299555, 1852.1773042890197, 1845.4047257190616, 1849.4503914654722, 0.008, 0.9580000000000001, 0.194, 192.0, 0.0, 0.0, 0.0, 0.0, 0.0, 0.0, 0.0, 0.0, 0.0, 1.645905776351671E9, 0.0, 2022-02-26 15:02:56.351"
"49.0, 1845.1588565300533, 1842.1860745174974, 1849.0927635541873, 1844.5106559408493, 1845.069449552232, 1852.0655455667431, 1845.427077463517, 1849.3162809987405, 0.008, 0.9580000000000001, 0.194, 192.0, 0.0, 0.0, 0.0, 0.0, 0.0, 0.0, 0.0, 0.0, 0.0, 1.645905776359134E9, 0.0, 2022-02-26 15:02:56.359"
"50.0, 1845.1588565300533, 1842.3425367286845, 1849.137467043098, 1844.4659524519388, 1845.0470978077767, 1851.909083355556, 1845.5164844413382, 1849.137467043098, 0.008, 0.9580000000000001, 0.194, 192.0, 0.0, 0.0, 0.0, 0.0, 0.0, 0.0, 0.0, 0.0, 0.0, 1.645905776359143E9, 0.0, 2022-02-26 15:02:56.359"
"51.0, 1844.8906355965896, 1842.0966675396762, 1849.428039721017, 1844.4883041963942, 1845.2259117634192, 1852.043193822288, 1845.7623536303465, 1849.3162809987405, 0.008, 0.9580000000000001, 0.194, 192.0, 0.0, 0.0, 0.0, 0.0, 0.0, 0.0, 0.0, 0.0, 0.0, 1.645905776367063E9, 0.0, 2022-02-26 15:02:56.367"
"52.0, 1844.9576908299555, 1841.9849088173996, 1849.293929254285, 1844.4883041963942, 1844.9800425744108, 1851.8643798666455, 1845.5388361857936, 1849.2045222764639, 0.008, 0.9580000000000001, 0.194, 192.0, 0.0, 0.0, 0.0, 0.0, 0.0, 0.0, 0.0, 0.0, 0.0, 1.645905776367073E9, 0.0, 2022-02-26 15:02:56.367"
"53.0, 1845.1588565300533, 1842.3201849842294, 1849.4503914654722, 1844.622414663126, 1844.8906355965896, 1851.976138588922, 1845.6058914191594, 1849.3386327431958, 0.008, 0.9580000000000001, 0.194, 192.0, 0.0, 0.0, 0.0, 0.0, 0.0, 0.0, 0.0, 0.0, 0.0, 1.645905776375138E9, 0.0, 2022-02-26 15:02:56.375"
"54.0, 1845.0470978077767, 1842.2531297508633, 1849.5845019322041, 1844.4436007074835, 1844.778876874313, 1851.8867316111007, 1845.4717809524277, 1849.293929254285, 0.008, 0.9580000000000001, 0.194, 192.0, 0.0, 0.0, 0.0, 0.0, 0.0, 0.0, 0.0, 0.0, 0.0, 1.645905776375212E9, 0.0, 2022-02-26 15:02:56.375"
"55.0, 1844.8235803632238, 1842.4319437065058, 1849.1151152986426, 1844.398897218573, 1844.9800425744108, 1852.0208420778326, 1845.4941326968828, 1849.293929254285, 0.008, 0.9580000000000001, 0.194, 192.0, 0.0, 0.0, 0.0, 0.0, 0.0, 0.0, 0.0, 0.0, 0.0, 1.645905776381605E9, 0.0, 2022-02-26 15:02:56.381"
"56.0, 1844.9353390855003, 1842.5437024287824, 1849.293929254285, 1844.4436007074835, 1844.8906355965896, 1852.0208420778326, 1845.5388361857936, 1849.3162809987405, 0.008, 0.9580000000000001, 0.194, 192.0, 0.0, 0.0, 0.0, 0.0, 0.0, 0.0, 0.0, 0.0, 0.0, 1.645905776381615E9, 0.0, 2022-02-26 15:02:56.381"
"57.0, 1845.0470978077767, 1842.4989989398719, 1849.3833362321063, 1844.5106559408493, 1844.8459321076791, 1851.9537868444668, 1845.6729466525253, 1849.360984487651, 0.016, 0.966, 0.192, 192.0, 0.0, 128.0, 30.0, 48.0, 6.0, 0.0, 0.0, 0.0, 0.0, 1.645905776390129E9, 0.0, 2022-02-26 15:02:56.390"
"58.0, 1845.3153187412404, 1842.3201849842294, 1849.4503914654722, 1844.622414663126, 1844.9800425744108, 1851.976138588922, 1845.5388361857936, 1849.3162809987405, 0.016, 0.966, 0.192, 192.0, 0.0, 0.0, 0.0, 0.0, 0.0, 0.0, 0.0, 0.0, 0.0, 1.645905776390138E9, 0.0, 2022-02-26 15:02:56.390"
"59.0, 1845.4717809524277, 1842.297833239774, 1849.4503914654722, 1844.6671181520367, 1845.2482635078745, 1852.1326008001092, 1845.5164844413382, 1849.1821705320085, 0.016, 0.966, 0.192, 192.0, 0.0, 0.0, 0.0, 0.0, 0.0, 0.0, 0.0, 0.0, 0.0, 1.64590577639783E9, 0.0, 2022-02-26 15:02:56.397"
"60.0, 1845.1588565300533, 1842.141371028587, 1849.1821705320085, 1844.5330076853047, 1845.136504785598, 1852.1549525445644, 1845.5388361857936, 1849.428039721017, 0.016, 0.966, 0.192, 192.0, 0.0, 0.0, 0.0, 0.0, 0.0, 0.0, 0.0, 0.0, 0.0, 1.645905776397848E9, 0.0, 2022-02-26 15:02:56.397"
"61.0, 1845.1141530411428, 1842.1860745174974, 1849.137467043098, 1844.2200832629305, 1844.9576908299555, 1852.266711266841, 1845.941167585989, 1849.293929254285, 0.016, 0.966, 0.192, 192.0, 0.0, 0.0, 0.0, 0.0, 0.0, 0.0, 0.0, 0.0, 0.0, 1.645905776404752E9, 0.0, 2022-02-26 15:02:56.404"
"62.0, 1845.1141530411428, 1842.141371028587, 1849.2045222764639, 1844.3094902407518, 1845.0247460633216, 1852.1549525445644, 1845.6282431636148, 1849.293929254285, 0.016, 0.966, 0.192, 192.0, 0.0, 0.0, 0.0, 0.0, 0.0, 0.0, 0.0, 0.0, 0.0, 1.645905776404767E9, 0.0, 2022-02-26 15:02:56.404"
"63.0, 1845.0470978077767, 1842.2531297508633, 1849.3162809987405, 1844.264786751841, 1845.0470978077767, 1851.7302693999136, 1845.4941326968828, 1849.2268740209192, 0.016, 0.966, 0.192, 192.0, 0.0, 0.0, 0.0, 0.0, 0.0, 0.0, 0.0, 0.0, 0.0, 1.645905776411358E9, 0.0, 2022-02-26 15:02:56.411"
"64.0, 1845.3823739746065, 1842.3425367286845, 1849.5621501877488, 1844.4436007074835, 1845.2259117634192, 1852.0208420778326, 1845.7623536303465, 1849.4727432099276, 0.016, 0.966, 0.192, 192.0, 0.0, 0.0, 0.0, 0.0, 0.0, 0.0, 0.0, 0.0, 0.0, 1.645905776419975E9, 0.0, 2022-02-26 15:02:56.419"
"65.0, 1845.0470978077767, 1842.2531297508633, 1849.0704118097321, 1844.6447664075813, 1844.8682838521343, 1852.0208420778326, 1845.561187930249, 1849.3833362321063, 0.016, 0.966, 0.192, 192.0, 0.0, 0.0, 0.0, 0.0, 0.0, 0.0, 0.0, 0.0, 0.0, 1.645905776419993E9, 0.0, 2022-02-26 15:02:56.419"
"66.0, 1844.8906355965896, 1842.4095919620506, 1849.2492257653746, 1844.3541937296623, 1844.9800425744108, 1851.909083355556, 1845.6505949080702, 1849.293929254285, 0.016, 0.966, 0.192, 192.0, 0.0, 0.0, 0.0, 0.0, 0.0, 0.0, 0.0, 0.0, 0.0, 1.64590577642733E9, 0.0, 2022-02-26 15:02:56.427"
"67.0, 1844.9800425744108, 1842.1860745174974, 1849.428039721017, 1844.5330076853047, 1844.9800425744108, 1852.043193822288, 1845.561187930249, 1849.4503914654722, 0.014, 0.978, 0.194, 192.0, 0.0, 112.0, 30.0, 144.0, 6.0, 16.0, 0.0, 0.0, 0.0, 1.645905776427338E9, 0.0, 2022-02-26 15:02:56.427"
"68.0, 1845.2259117634192, 1842.141371028587, 1849.4056879765617, 1844.4883041963942, 1844.9800425744108, 1852.2443595223856, 1845.3600222301511, 1849.360984487651, 0.014, 0.978, 0.194, 192.0, 0.0, 0.0, 0.0, 0.0, 0.0, 0.0, 0.0, 0.0, 0.0, 1.645905776434387E9, 0.0, 2022-02-26 15:02:56.434"
"69.0, 1845.1588565300533, 1842.4095919620506, 1849.2492257653746, 1844.5106559408493, 1844.8012286187684, 1852.0208420778326, 1845.3600222301511, 1849.293929254285, 0.014, 0.978, 0.194, 192.0, 0.0, 0.0, 0.0, 0.0, 0.0, 0.0, 0.0, 0.0, 0.0, 1.645905776434396E9, 0.0, 2022-02-26 15:02:56.434"
"70.0, 1845.0918012966874, 1842.297833239774, 1849.0704118097321, 1844.4883041963942, 1844.8682838521343, 1851.909083355556, 1845.427077463517, 1849.2715775098297, 0.014, 0.978, 0.194, 192.0, 0.0, 0.0, 0.0, 0.0, 0.0, 0.0, 0.0, 0.0, 0.0, 1.645905776442419E9, 0.0, 2022-02-26 15:02:56.442"
"71.0, 1845.1812082745087, 1842.2307780064082, 1849.2715775098297, 1844.6000629186706, 1844.9353390855003, 1851.8420281221902, 1845.427077463517, 1849.2268740209192, 0.014, 0.978, 0.194, 192.0, 0.0, 0.0, 0.0, 0.0, 0.0, 0.0, 0.0, 0.0, 0.0, 1.645905776442443E9, 0.0, 2022-02-26 15:02:56.442"
"72.0, 1845.136504785598, 1842.2084262619528, 1849.2268740209192, 1844.398897218573, 1844.9800425744108, 1852.043193822288, 1845.5388361857936, 1849.2492257653746, 0.014, 0.978, 0.194, 192.0, 0.0, 0.0, 0.0, 0.0, 0.0, 0.0, 0.0, 0.0, 0.0, 1.645905776449976E9, 0.0, 2022-02-26 15:02:56.449"
"73.0, 1845.2259117634192, 1842.297833239774, 1849.293929254285, 1844.4436007074835, 1844.9800425744108, 1852.199656033475, 1845.6282431636148, 1849.293929254285, 0.014, 0.978, 0.194, 192.0, 0.0, 0.0, 0.0, 0.0, 0.0, 0.0, 0.0, 0.0, 0.0, 1.645905776449985E9, 0.0, 2022-02-26 15:02:56.449"
"74.0, 1844.8682838521343, 1842.3425367286845, 1849.293929254285, 1844.2871384962964, 1845.0918012966874, 1852.0655455667431, 1845.561187930249, 1849.0704118097321, 0.014, 0.978, 0.194, 192.0, 0.0, 0.0, 0.0, 0.0, 0.0, 0.0, 0.0, 0.0, 0.0, 1.645905776457013E9, 0.0, 2022-02-26 15:02:56.457"
"75.0, 1844.9800425744108, 1842.3201849842294, 1849.2045222764639, 1844.5106559408493, 1844.8459321076791, 1851.909083355556, 1845.5388361857936, 1849.0480600652768, 0.014, 0.978, 0.194, 192.0, 0.0, 0.0, 0.0, 0.0, 0.0, 0.0, 0.0, 0.0, 0.0, 1.645905776457022E9, 0.0, 2022-02-26 15:02:56.457"
"76.0, 1844.8012286187684, 1842.2084262619528, 1849.137467043098, 1844.3765454741176, 1844.9353390855003, 1851.752621144369, 1845.427077463517, 1849.1598187875534, 0.014, 0.978, 0.194, 192.0, 0.0, 0.0, 0.0, 0.0, 0.0, 0.0, 0.0, 0.0, 0.0, 1.645905776464702E9, 0.0, 2022-02-26 15:02:56.464"
"77.0, 1844.8012286187684, 1842.36488847314, 1849.360984487651, 1844.2424350073857, 1844.9353390855003, 1851.9984903333773, 1845.3153187412404, 1849.4727432099276, 0.02, 0.988, 0.2, 192.0, 0.0, 160.0, 30.0, 224.0, 6.0, 64.0, 0.0, 0.0, 0.0, 1.645905776464716E9, 0.0, 2022-02-26 15:02:56.464"
"78.0, 1844.9353390855003, 1842.3201849842294, 1849.3833362321063, 1844.4436007074835, 1844.8682838521343, 1852.0878973111985, 1845.5388361857936, 1849.3833362321063, 0.02, 0.988, 0.2, 192.0, 0.0, 0.0, 0.0, 0.0, 0.0, 0.0, 0.0, 0.0, 0.0, 1.645905776472089E9, 0.0, 2022-02-26 15:02:56.472"
"79.0, 1845.0023943188662, 1842.0743157952209, 1849.1151152986426, 1844.4212489630281, 1844.8682838521343, 1851.7749728888243, 1845.5164844413382, 1849.0257083208214, 0.02, 0.988, 0.2, 192.0, 0.0, 0.0, 0.0, 0.0, 0.0, 0.0, 0.0, 0.0, 0.0, 1.645905776480899E9, 0.0, 2022-02-26 15:02:56.480"
"80.0, 1845.0918012966874, 1842.0296123063104, 1848.9139495985448, 1844.4883041963942, 1845.136504785598, 1852.0878973111985, 1845.4717809524277, 1849.2492257653746, 0.02, 0.988, 0.2, 192.0, 0.0, 0.0, 0.0, 0.0, 0.0, 0.0, 0.0, 0.0, 0.0, 1.645905776480907E9, 0.0, 2022-02-26 15:02:56.480"
"81.0, 1845.0247460633216, 1842.297833239774, 1849.1821705320085, 1844.5106559408493, 1845.0918012966874, 1852.1326008001092, 1845.5388361857936, 1849.3162809987405, 0.02, 0.988, 0.2, 192.0, 0.0, 0.0, 0.0, 0.0, 0.0, 0.0, 0.0, 0.0, 0.0, 1.645905776487702E9, 0.0, 2022-02-26 15:02:56.487"
"82.0, 1845.0918012966874, 1842.2084262619528, 1849.2492257653746, 1844.6447664075813, 1844.6671181520367, 1852.1773042890197, 1845.0918012966874, 1849.4056879765617, 0.02, 0.988, 0.2, 192.0, 0.0, 0.0, 0.0, 0.0, 0.0, 0.0, 0.0, 0.0, 0.0, 1.645905776487713E9, 0.0, 2022-02-26 15:02:56.487"
"83.0, 1845.0470978077767, 1842.2531297508633, 1849.1151152986426, 1844.2871384962964, 1844.5106559408493, 1851.8420281221902, 1845.2259117634192, 1849.1151152986426, 0.02, 0.988, 0.2, 192.0, 0.0, 0.0, 0.0, 0.0, 0.0, 0.0, 0.0, 0.0, 0.0, 1.645905776495797E9, 0.0, 2022-02-26 15:02:56.495"
"84.0, 1845.3600222301511, 1842.4095919620506, 1849.0704118097321, 1844.264786751841, 1844.7341733854025, 1851.9537868444668, 1845.4941326968828, 1849.2715775098297, 0.02, 0.988, 0.2, 192.0, 0.0, 0.0, 0.0, 0.0, 0.0, 0.0, 0.0, 0.0, 0.0, 1.645905776495841E9, 0.0, 2022-02-26 15:02:56.495"
"85.0, 1845.2929669967853, 1842.3425367286845, 1849.137467043098, 1844.3765454741176, 1844.9576908299555, 1852.1326008001092, 1845.6505949080702, 1849.2268740209192, 0.02, 0.988, 0.2, 192.0, 0.0, 0.0, 0.0, 0.0, 0.0, 0.0, 0.0, 0.0, 0.0, 1.6459057765022E9, 0.0, 2022-02-26 15:02:56.502"
"86.0, 1845.0470978077767, 1842.36488847314, 1849.360984487651, 1844.3765454741176, 1845.0247460633216, 1851.8420281221902, 1845.4494292079723, 1849.293929254285, 0.02, 0.984, 0.194, 192.0, 0.0, 160.0, 30.0, 192.0, 6.0, 16.0, 0.0, 0.0, 0.0, 1.645905776502208E9, 0.0, 2022-02-26 15:02:56.502"
"87.0, 1845.0918012966874, 1842.163722773042, 1849.360984487651, 1844.108324540654, 1844.9800425744108, 1851.976138588922, 1845.561187930249, 1849.1151152986426, 0.02, 0.984, 0.194, 192.0, 0.0, 0.0, 0.0, 0.0, 0.0, 0.0, 0.0, 0.0, 0.0, 1.645905776510261E9, 0.0, 2022-02-26 15:02:56.510"
"88.0, 1845.2482635078745, 1842.36488847314, 1849.293929254285, 1844.264786751841, 1844.756525129858, 1852.0208420778326, 1845.8294088637126, 1849.0704118097321, 0.02, 0.984, 0.194, 192.0, 0.0, 0.0, 0.0, 0.0, 0.0, 0.0, 0.0, 0.0, 0.0, 1.645905776510281E9, 0.0, 2022-02-26 15:02:56.510"
"89.0, 1845.1812082745087, 1842.297833239774, 1849.293929254285, 1844.264786751841, 1844.8682838521343, 1851.976138588922, 1845.8964640970785, 1849.2045222764639, 0.02, 0.984, 0.194, 192.0, 0.0, 0.0, 0.0, 0.0, 0.0, 0.0, 0.0, 0.0, 0.0, 1.645905776518914E9, 0.0, 2022-02-26 15:02:56.518"
"90.0, 1844.8682838521343, 1842.0519640507657, 1849.2268740209192, 1844.5106559408493, 1845.2259117634192, 1851.7973246332795, 1845.5388361857936, 1849.0257083208214, 0.02, 0.984, 0.194, 192.0, 0.0, 0.0, 0.0, 0.0, 0.0, 0.0, 0.0, 0.0, 0.0, 1.645905776518925E9, 0.0, 2022-02-26 15:02:56.518"
"91.0, 1845.1141530411428, 1842.2754814953187, 1849.137467043098, 1844.3094902407518, 1845.203560018964, 1851.8643798666455, 1845.427077463517, 1849.1821705320085, 0.02, 0.984, 0.194, 192.0, 0.0, 0.0, 0.0, 0.0, 0.0, 0.0, 0.0, 0.0, 0.0, 1.645905776524929E9, 0.0, 2022-02-26 15:02:56.524"
"92.0, 1845.0470978077767, 1842.521350684327, 1849.003356576366, 1844.1530280295644, 1845.0023943188662, 1851.909083355556, 1845.5164844413382, 1849.1821705320085, 0.02, 0.984, 0.194, 192.0, 0.0, 0.0, 0.0, 0.0, 0.0, 0.0, 0.0, 0.0, 0.0, 1.645905776524938E9, 0.0, 2022-02-26 15:02:56.524"
"93.0, 1844.8682838521343, 1842.0966675396762, 1849.1598187875534, 1844.3541937296623, 1844.9353390855003, 1852.1102490556539, 1845.4047257190616, 1849.1151152986426, 0.02, 0.984, 0.194, 192.0, 0.0, 0.0, 0.0, 0.0, 0.0, 0.0, 0.0, 0.0, 0.0, 1.645905776531948E9, 0.0, 2022-02-26 15:02:56.531"
"94.0, 1844.9353390855003, 1842.2754814953187, 1849.1598187875534, 1844.622414663126, 1845.0918012966874, 1852.0878973111985, 1845.427077463517, 1849.1821705320085, 0.02, 0.984, 0.194, 192.0, 0.0, 0.0, 0.0, 0.0, 0.0, 0.0, 0.0, 0.0, 0.0, 1.645905776540027E9, 0.0, 2022-02-26 15:02:56.540"
"95.0, 1844.7118216409472, 1842.3201849842294, 1848.981004831911, 1844.5106559408493, 1845.136504785598, 1851.9314351000114, 1845.6282431636148, 1849.293929254285, 0.02, 0.984, 0.194, 192.0, 0.0, 0.0, 0.0, 0.0, 0.0, 0.0, 0.0, 0.0, 0.0, 1.645905776540039E9, 0.0, 2022-02-26 15:02:56.540"
"96.0, 1845.0023943188662, 1842.521350684327, 1849.0257083208214, 1844.398897218573, 1844.9353390855003, 1852.0655455667431, 1845.5388361857936, 1849.3386327431958, 0.022, 0.964, 0.188, 192.0, 0.0, 176.0, 30.0, 32.0, 5.0, 224.0, 0.0, 0.0, 0.0, 1.645905776547031E9, 0.0, 2022-02-26 15:02:56.547"
"97.0, 1845.1812082745087, 1842.588405917693, 1849.2268740209192, 1844.4659524519388, 1844.9576908299555, 1851.909083355556, 1845.3153187412404, 1849.2045222764639, 0.022, 0.964, 0.188, 192.0, 0.0, 0.0, 0.0, 0.0, 0.0, 0.0, 0.0, 0.0, 0.0, 1.64590577654704E9, 0.0, 2022-02-26 15:02:56.547"
"98.0, 1844.9353390855003, 1842.0743157952209, 1849.1821705320085, 1844.5106559408493, 1844.9800425744108, 1852.0208420778326, 1845.4494292079723, 1849.2268740209192, 0.022, 0.964, 0.188, 192.0, 0.0, 0.0, 0.0, 0.0, 0.0, 0.0, 0.0, 0.0, 0.0, 1.645905776554555E9, 0.0, 2022-02-26 15:02:56.554"
"99.0, 1845.27061525233, 1841.8731500951233, 1849.3386327431958, 1844.4212489630281, 1844.9800425744108, 1852.043193822288, 1845.6505949080702, 1849.0704118097321, 0.022, 0.964, 0.188, 192.0, 0.0, 0.0, 0.0, 0.0, 0.0, 0.0, 0.0, 0.0, 0.0, 1.645905776554563E9, 0.0, 2022-02-26 15:02:56.554"
"100.0, 1845.27061525233, 1842.4989989398719, 1849.4056879765617, 1844.6671181520367, 1845.0247460633216, 1852.2443595223856, 1845.2482635078745, 1849.360984487651, 0.022, 0.964, 0.188, 192.0, 0.0, 0.0, 0.0, 0.0, 0.0, 0.0, 0.0, 0.0, 0.0, 1.645905776562775E9, 0.0, 2022-02-26 15:02:56.562"
"101.0, 1844.9800425744108, 1842.2531297508633, 1849.2268740209192, 1844.6000629186706, 1845.136504785598, 1852.0208420778326, 1845.203560018964, 1849.3386327431958, 0.022, 0.964, 0.188, 192.0, 0.0, 0.0, 0.0, 0.0, 0.0, 0.0, 0.0, 0.0, 0.0, 1.645905776562793E9, 0.0, 2022-02-26 15:02:56.562"
"102.0, 1844.8906355965896, 1842.1860745174974, 1849.0704118097321, 1844.264786751841, 1845.0023943188662, 1851.9314351000114, 1845.6729466525253, 1849.4727432099276, 0.022, 0.964, 0.188, 192.0, 0.0, 0.0, 0.0, 0.0, 0.0, 0.0, 0.0, 0.0, 0.0, 1.645905776570556E9, 0.0, 2022-02-26 15:02:56.570"
"103.0, 1844.8682838521343, 1842.297833239774, 1849.0480600652768, 1844.331841985207, 1844.9353390855003, 1852.0208420778326, 1845.8294088637126, 1849.428039721017, 0.022, 0.964, 0.188, 192.0, 0.0, 0.0, 0.0, 0.0, 0.0, 0.0, 0.0, 0.0, 0.0, 1.645905776570568E9, 0.0, 2022-02-26 15:02:56.570"
"104.0, 1845.1812082745087, 1842.2084262619528, 1849.137467043098, 1844.55535942976, 1844.9576908299555, 1851.909083355556, 1845.583539674704, 1849.137467043098, 0.022, 0.964, 0.188, 192.0, 0.0, 0.0, 0.0, 0.0, 0.0, 0.0, 0.0, 0.0, 0.0, 1.645905776577248E9, 0.0, 2022-02-26 15:02:56.577"
"105.0, 1845.0470978077767, 1842.0743157952209, 1848.9363013430002, 1844.3094902407518, 1844.9800425744108, 1851.8420281221902, 1845.427077463517, 1849.137467043098, 0.022, 0.964, 0.188, 192.0, 0.0, 0.0, 0.0, 0.0, 0.0, 0.0, 0.0, 0.0, 0.0, 1.64590577657726E9, 0.0, 2022-02-26 15:02:56.577"
"106.0, 1845.0470978077767, 1842.0296123063104, 1849.293929254285, 1844.4883041963942, 1845.0470978077767, 1852.1326008001092, 1845.4941326968828, 1849.0704118097321, 0.028, 0.962, 0.186, 192.0, 0.0, 224.0, 30.0, 16.0, 5.0, 208.0, 0.0, 0.0, 0.0, 1.645905776585524E9, 0.0, 2022-02-26 15:02:56.585"
"107.0, 1845.1141530411428, 1842.36488847314, 1849.3162809987405, 1844.4212489630281, 1844.9353390855003, 1851.9537868444668, 1845.4941326968828, 1849.1821705320085, 0.028, 0.962, 0.186, 192.0, 0.0, 0.0, 0.0, 0.0, 0.0, 0.0, 0.0, 0.0, 0.0, 1.645905776585547E9, 0.0, 2022-02-26 15:02:56.585"
"108.0, 1845.0470978077767, 1842.1860745174974, 1849.293929254285, 1844.1530280295644, 1844.8906355965896, 1851.8196763777348, 1845.203560018964, 1849.428039721017, 0.028, 0.962, 0.186, 192.0, 0.0, 0.0, 0.0, 0.0, 0.0, 0.0, 0.0, 0.0, 0.0, 1.645905776592111E9, 0.0, 2022-02-26 15:02:56.592"
"109.0, 1845.1588565300533, 1842.2307780064082, 1849.4056879765617, 1844.264786751841, 1845.0470978077767, 1852.0208420778326, 1845.4717809524277, 1849.2715775098297, 0.028, 0.962, 0.186, 192.0, 0.0, 0.0, 0.0, 0.0, 0.0, 0.0, 0.0, 0.0, 0.0, 1.645905776599322E9, 0.0, 2022-02-26 15:02:56.599"
"110.0, 1845.1812082745087, 1842.3872402175953, 1849.1821705320085, 1844.4436007074835, 1845.1141530411428, 1852.1549525445644, 1845.7623536303465, 1849.1598187875534, 0.028, 0.962, 0.186, 192.0, 0.0, 0.0, 0.0, 0.0, 0.0, 0.0, 0.0, 0.0, 0.0, 1.64590577659933E9, 0.0, 2022-02-26 15:02:56.599"
"111.0, 1845.0023943188662, 1842.3201849842294, 1848.8915978540897, 1844.6671181520367, 1845.069449552232, 1851.8420281221902, 1845.5388361857936, 1849.1151152986426, 0.028, 0.962, 0.186, 192.0, 0.0, 0.0, 0.0, 0.0, 0.0, 0.0, 0.0, 0.0, 0.0, 1.645905776606918E9, 0.0, 2022-02-26 15:02:56.606"
"112.0, 1844.9353390855003, 1842.1860745174974, 1849.2268740209192, 1844.5330076853047, 1844.9353390855003, 1851.685565911003, 1845.561187930249, 1849.2045222764639, 0.028, 0.962, 0.186, 192.0, 0.0, 0.0, 0.0, 0.0, 0.0, 0.0, 0.0, 0.0, 0.0, 1.64590577660693E9, 0.0, 2022-02-26 15:02:56.606"
"113.0, 1845.0023943188662, 1842.521350684327, 1849.2492257653746, 1844.5106559408493, 1845.069449552232, 1851.7973246332795, 1845.784705374802, 1849.3386327431958, 0.028, 0.962, 0.186, 192.0, 0.0, 0.0, 0.0, 0.0, 0.0, 0.0, 0.0, 0.0, 0.0, 1.64590577661476E9, 0.0, 2022-02-26 15:02:56.614"
"114.0, 1844.9800425744108, 1842.4542954509611, 1849.2492257653746, 1844.4212489630281, 1845.0023943188662, 1851.8196763777348, 1845.3823739746065, 1849.3833362321063, 0.028, 0.962, 0.186, 192.0, 0.0, 0.0, 0.0, 0.0, 0.0, 0.0, 0.0, 0.0, 0.0, 1.64590577661477E9, 0.0, 2022-02-26 15:02:56.614"
"115.0, 1845.0023943188662, 1842.2754814953187, 1849.2045222764639, 1844.5106559408493, 1845.1812082745087, 1851.6632141665477, 1845.427077463517, 1849.2492257653746, 0.028, 0.962, 0.186, 192.0, 0.0, 0.0, 0.0, 0.0, 0.0, 0.0, 0.0, 0.0, 0.0, 1.645905776622199E9, 0.0, 2022-02-26 15:02:56.622"
"116.0, 1845.0918012966874, 1842.1860745174974, 1849.1151152986426, 1844.4436007074835, 1845.0918012966874, 1851.9537868444668, 1845.5388361857936, 1849.4503914654722, 0.02, 0.968, 0.188, 192.0, 0.0, 160.0, 30.0, 64.0, 5.0, 224.0, 0.0, 0.0, 0.0, 1.645905776622221E9, 0.0, 2022-02-26 15:02:56.622"
"117.0, 1845.136504785598, 1842.297833239774, 1849.0704118097321, 1844.398897218573, 1844.9353390855003, 1852.0208420778326, 1845.8741123526231, 1849.5845019322041, 0.02, 0.968, 0.188, 192.0, 0.0, 0.0, 0.0, 0.0, 0.0, 0.0, 0.0, 0.0, 0.0, 1.645905776629523E9, 0.0, 2022-02-26 15:02:56.629"
"118.0, 1845.0918012966874, 1842.1860745174974, 1849.0257083208214, 1844.2871384962964, 1844.912987341045, 1851.752621144369, 1845.4717809524277, 1849.293929254285, 0.02, 0.968, 0.188, 192.0, 0.0, 0.0, 0.0, 0.0, 0.0, 0.0, 0.0, 0.0, 0.0, 1.645905776629538E9, 0.0, 2022-02-26 15:02:56.629"
"119.0, 1845.069449552232, 1842.1860745174974, 1849.0257083208214, 1844.6000629186706, 1845.0023943188662, 1851.8643798666455, 1845.427077463517, 1849.360984487651, 0.02, 0.968, 0.188, 192.0, 0.0, 0.0, 0.0, 0.0, 0.0, 0.0, 0.0, 0.0, 0.0, 1.645905776637343E9, 0.0, 2022-02-26 15:02:56.637"
"120.0, 1844.9353390855003, 1842.3872402175953, 1849.360984487651, 1844.3094902407518, 1845.0918012966874, 1852.0208420778326, 1845.7623536303465, 1849.293929254285, 0.02, 0.968, 0.188, 192.0, 0.0, 0.0, 0.0, 0.0, 0.0, 0.0, 0.0, 0.0, 0.0, 1.645905776637353E9, 0.0, 2022-02-26 15:02:56.637"
"121.0, 1844.8012286187684, 1842.4319437065058, 1849.293929254285, 1844.3541937296623, 1845.2259117634192, 1852.0878973111985, 1845.8517606081678, 1849.5845019322041, 0.02, 0.968, 0.188, 192.0, 0.0, 0.0, 0.0, 0.0, 0.0, 0.0, 0.0, 0.0, 0.0, 1.645905776645552E9, 0.0, 2022-02-26 15:02:56.645"
"122.0, 1844.8235803632238, 1842.3201849842294, 1849.2268740209192, 1844.55535942976, 1845.203560018964, 1851.909083355556, 1845.4941326968828, 1849.3833362321063, 0.02, 0.968, 0.188, 192.0, 0.0, 0.0, 0.0, 0.0, 0.0, 0.0, 0.0, 0.0, 0.0, 1.645905776645579E9, 0.0, 2022-02-26 15:02:56.645"
"123.0, 1844.8012286187684, 1842.0966675396762, 1849.2268740209192, 1844.3765454741176, 1845.0023943188662, 1851.9537868444668, 1845.4047257190616, 1849.2045222764639, 0.02, 0.968, 0.188, 192.0, 0.0, 0.0, 0.0, 0.0, 0.0, 0.0, 0.0, 0.0, 0.0, 1.645905776651405E9, 0.0, 2022-02-26 15:02:56.651"
"124.0, 1225.166168828746, 1222.1933868161902, 1228.9212618972376, 1224.2720990505338, 1225.4343897622098, 1232.4304857767208, 1225.6579072067627, 1229.1447793417906, 0.02, 0.968, 0.188, 192.0, 0.0, 0.0, 0.0, 0.0, 0.0, 0.0, 0.0, 0.0, 0.0, 1.645905776651413E9, 0.0, 2022-02-26 15:02:56.651"
"125.0, -1267.2098001491786, -1270.0931751839132, -1265.0193291925584, -1269.132050172335, -1265.935750715226, -1259.3866895898211, -1267.5003728270976, -1264.77346000355, 0.02, 0.968, 0.188, 192.0, 0.0, 0.0, 0.0, 0.0, 0.0, 0.0, 0.0, 0.0, 0.0, 1.645905776659046E9, 0.0, 2022-02-26 15:02:56.659"
"126.0, -1893.5056797868824, -1896.3219995882512, -1891.8963541861003, -1895.6290955101367, -1892.2763338418406, -1885.7272727164357, -1894.2432873539076, -1892.1198716306535, 0.018000000000000002, 0.966, 0.17, 192.0, 0.0, 144.0, 30.0, 48.0, 5.0, 80.0, 0.0, 0.0, 0.0, 1.645905776667084E9, 0.0, 2022-02-26 15:02:56.667"
"127.0, -1893.5727350202485, -1896.5902205217149, -1891.941057675011, -1895.6961507435026, -1892.3880925641172, -1885.8613831831674, -1894.2879908428183, -1892.23163035293, 0.018000000000000002, 0.966, 0.17, 192.0, 0.0, 0.0, 0.0, 0.0, 0.0, 0.0, 0.0, 0.0, 0.0, 1.645905776667095E9, 0.0, 2022-02-26 15:02:56.667"
"128.0, -1893.8186042092568, -1896.9702001774551, -1892.0304646528323, -1895.7632059768684, -1892.4327960530277, -1885.749624460891, -1894.3997495650947, -1892.2092786084747, 0.018000000000000002, 0.966, 0.17, 192.0, 0.0, 0.0, 0.0, 0.0, 0.0, 0.0, 0.0, 0.0, 0.0, 1.645905776677894E9, 0.0, 2022-02-26 15:02:56.677"
"129.0, -1893.908011187078, -1896.7913862218127, -1891.8740024416452, -1895.8973164436004, -1892.522203030849, -1885.8390314387123, -1894.1091768871759, -1892.298685586296, 0.018000000000000002, 0.966, 0.17, 192.0, 0.0, 0.0, 0.0, 0.0, 0.0, 0.0, 0.0, 0.0, 0.0, 1.645905776677904E9, 0.0, 2022-02-26 15:02:56.677"
"130.0, -1893.8856594426227, -1896.6125722661702, -1891.8963541861003, -1895.7408542324133, -1892.3433890752065, -1885.8390314387123, -1894.1538803760864, -1892.4327960530277, 0.018000000000000002, 0.966, 0.17, 192.0, 0.0, 0.0, 0.0, 0.0, 0.0, 0.0, 0.0, 0.0, 0.0, 1.645905776684062E9, 0.0, 2022-02-26 15:02:56.684"
"131.0, -1893.617438509159, -1896.8584414551785, -1891.784595463824, -1895.5173367878601, -1892.4327960530277, -1885.682569227525, -1893.9974181648993, -1892.5445547753043, 0.018000000000000002, 0.966, 0.17, 192.0, 0.0, 0.0, 0.0, 0.0, 0.0, 0.0, 0.0, 0.0, 0.0, 1.645905776684075E9, 0.0, 2022-02-26 15:02:56.684"
"132.0, -1893.773900720346, -1896.746682732902, -1891.784595463824, -1895.7408542324133, -1892.4998512863938, -1885.6378657386144, -1894.0868251427205, -1892.3210373307513, 0.018000000000000002, 0.966, 0.17, 192.0, 0.0, 0.0, 0.0, 0.0, 0.0, 0.0, 0.0, 0.0, 0.0, 1.645905776690998E9, 0.0, 2022-02-26 15:02:56.690"
"133.0, -1894.0197699093546, -1896.4114065660724, -1891.806947208279, -1895.6290955101367, -1892.5669065197596, -1885.615513994159, -1894.2432873539076, -1892.3433890752065, 0.018000000000000002, 0.966, 0.17, 192.0, 0.0, 0.0, 0.0, 0.0, 0.0, 0.0, 0.0, 0.0, 0.0, 1.645905776691028E9, 0.0, 2022-02-26 15:02:56.691"
"134.0, -1893.773900720346, -1896.5008135438936, -1891.8516506971898, -1895.6290955101367, -1892.3880925641172, -1885.682569227525, -1894.0868251427205, -1892.0975198861981, 0.018000000000000002, 0.966, 0.17, 192.0, 0.0, 0.0, 0.0, 0.0, 0.0, 0.0, 0.0, 0.0, 0.0, 1.645905776697756E9, 0.0, 2022-02-26 15:02:56.697"
"135.0, -1893.5727350202485, -1896.523165288349, -1891.9634094194664, -1895.7408542324133, -1892.2539820973852, -1885.9060866720781, -1894.2879908428183, -1892.3210373307513, 0.018000000000000002, 0.966, 0.17, 192.0, 0.0, 0.0, 0.0, 0.0, 0.0, 0.0, 0.0, 0.0, 0.0, 1.645905776697771E9, 0.0, 2022-02-26 15:02:56.697"
"136.0, -1893.8409559537122, -1896.6349240106256, -1891.9634094194664, -1895.6290955101367, -1892.3657408196618, -1885.749624460891, -1894.2432873539076, -1892.4104443085726, 0.018000000000000002, 0.972, 0.16, 192.0, 0.0, 144.0, 30.0, 96.0, 5.0, 0.0, 0.0, 0.0, 0.0, 1.64590577670611E9, 0.0, 2022-02-26 15:02:56.706"
"137.0, -1893.773900720346, -1896.6349240106256, -1891.650484997092, -1895.7408542324133, -1892.4327960530277, -1885.7049209719803, -1893.9974181648993, -1892.0751681417428, 0.018000000000000002, 0.972, 0.16, 192.0, 0.0, 0.0, 0.0, 0.0, 0.0, 0.0, 0.0, 0.0, 0.0, 1.645905776706119E9, 0.0, 2022-02-26 15:02:56.706"
"138.0, -1893.5950867647036, -1896.5455170328044, -1891.650484997092, -1895.874964699145, -1892.23163035293, -1885.816679694257, -1894.0197699093546, -1891.9187059305557, 0.018000000000000002, 0.972, 0.16, 192.0, 0.0, 0.0, 0.0, 0.0, 0.0, 0.0, 0.0, 0.0, 0.0, 1.645905776712392E9, 0.0, 2022-02-26 15:02:56.712"
"139.0, -1893.908011187078, -1896.8584414551785, -1891.9187059305557, -1895.718502487958, -1892.4104443085726, -1885.9954936498993, -1894.0868251427205, -1892.2092786084747, 0.018000000000000002, 0.972, 0.16, 192.0, 0.0, 0.0, 0.0, 0.0, 0.0, 0.0, 0.0, 0.0, 0.0, 1.6459057767124E9, 0.0, 2022-02-26 15:02:56.712"
"140.0, -1893.8856594426227, -1897.0149036663656, -1891.9857611639216, -1895.9643716769663, -1892.4327960530277, -1886.0178453943547, -1894.131528631631, -1892.0751681417428, 0.018000000000000002, 0.972, 0.16, 192.0, 0.0, 0.0, 0.0, 0.0, 0.0, 0.0, 0.0, 0.0, 0.0, 1.645905776719538E9, 0.0, 2022-02-26 15:02:56.719"
"141.0, -1893.6844937425249, -1896.813737966268, -1891.8516506971898, -1896.0314269103321, -1892.2763338418406, -1886.129604116631, -1894.3550460761842, -1891.8963541861003, 0.018000000000000002, 0.972, 0.16, 192.0, 0.0, 0.0, 0.0, 0.0, 0.0, 0.0, 0.0, 0.0, 0.0, 1.645905776727241E9, 0.0, 2022-02-26 15:02:56.727"
"142.0, -1893.908011187078, -1896.366703077162, -1891.8963541861003, -1895.8973164436004, -1892.2092786084747, -1886.129604116631, -1894.1762321205417, -1891.941057675011, 0.018000000000000002, 0.972, 0.16, 192.0, 0.0, 0.0, 0.0, 0.0, 0.0, 0.0, 0.0, 0.0, 0.0, 1.64590577672725E9, 0.0, 2022-02-26 15:02:56.727"
"143.0, -1893.8409559537122, -1896.4561100549831, -1891.8963541861003, -1895.9196681880558, -1892.5445547753043, -1886.0401971388098, -1893.9974181648993, -1891.9187059305557, 0.018000000000000002, 0.972, 0.16, 192.0, 0.0, 0.0, 0.0, 0.0, 0.0, 0.0, 0.0, 0.0, 0.0, 1.645905776737213E9, 0.0, 2022-02-26 15:02:56.737"
"144.0, -1893.6397902536144, -1896.4561100549831, -1891.7622437193686, -1895.8079094657792, -1892.4998512863938, -1885.7272727164357, -1894.1762321205417, -1891.8292989527345, 0.018000000000000002, 0.972, 0.16, 192.0, 0.0, 0.0, 0.0, 0.0, 0.0, 0.0, 0.0, 0.0, 0.0, 1.645905776737232E9, 0.0, 2022-02-26 15:02:56.737"
"145.0, -1893.773900720346, -1896.7913862218127, -1891.6728367415474, -1895.6737989990472, -1892.5445547753043, -1885.749624460891, -1894.3550460761842, -1892.23163035293, 0.02, 0.978, 0.158, 192.0, 0.0, 160.0, 30.0, 144.0, 4.0, 240.0, 0.0, 0.0, 0.0, 1.645905776742067E9, 0.0, 2022-02-26 15:02:56.742"
"146.0, -1893.773900720346, -1896.7913862218127, -1891.784595463824, -1895.8302612102345, -1892.3433890752065, -1885.4814035274273, -1894.2432873539076, -1892.1198716306535, 0.02, 0.978, 0.158, 192.0, 0.0, 0.0, 0.0, 0.0, 0.0, 0.0, 0.0, 0.0, 0.0, 1.645905776742083E9, 0.0, 2022-02-26 15:02:56.742"
"147.0, -1893.6844937425249, -1896.9254966885444, -1891.9634094194664, -1895.8973164436004, -1892.455147797483, -1885.7049209719803, -1894.198583864997, -1892.4327960530277, 0.02, 0.978, 0.158, 192.0, 0.0, 0.0, 0.0, 0.0, 0.0, 0.0, 0.0, 0.0, 0.0, 1.645905776749858E9, 0.0, 2022-02-26 15:02:56.749"
"148.0, -1893.7291972314356, -1896.7690344773573, -1891.650484997092, -1895.6737989990472, -1892.1422233751089, -1885.682569227525, -1894.1762321205417, -1892.164575119564, 0.02, 0.978, 0.158, 192.0, 0.0, 0.0, 0.0, 0.0, 0.0, 0.0, 0.0, 0.0, 0.0, 1.645905776749866E9, 0.0, 2022-02-26 15:02:56.749"
"149.0, -1893.908011187078, -1896.679627499536, -1891.5610780192708, -1895.8973164436004, -1892.3880925641172, -1885.7272727164357, -1894.42210130955, -1892.1869268640194, 0.02, 0.978, 0.158, 192.0, 0.0, 0.0, 0.0, 0.0, 0.0, 0.0, 0.0, 0.0, 0.0, 1.645905776756814E9, 0.0, 2022-02-26 15:02:56.756"
"150.0, -1894.0644733982651, -1896.3219995882512, -1891.6728367415474, -1895.7855577213238, -1892.2763338418406, -1885.749624460891, -1894.1091768871759, -1892.2092786084747, 0.02, 0.978, 0.158, 192.0, 0.0, 0.0, 0.0, 0.0, 0.0, 0.0, 0.0, 0.0, 0.0, 1.645905776756823E9, 0.0, 2022-02-26 15:02:56.756"
"151.0, -1893.7291972314356, -1896.3443513327065, -1891.7398919749132, -1895.9196681880558, -1892.3433890752065, -1885.7943279498015, -1894.2209356094522, -1892.164575119564, 0.02, 0.978, 0.158, 192.0, 0.0, 0.0, 0.0, 0.0, 0.0, 0.0, 0.0, 0.0, 0.0, 1.645905776765121E9, 0.0, 2022-02-26 15:02:56.765"
"152.0, -1893.393921064606, -1896.679627499536, -1891.6057815081815, -1895.8079094657792, -1892.5445547753043, -1885.7272727164357, -1894.2432873539076, -1892.3433890752065, 0.02, 0.978, 0.158, 192.0, 0.0, 0.0, 0.0, 0.0, 0.0, 0.0, 0.0, 0.0, 0.0, 1.645905776765137E9, 0.0, 2022-02-26 15:02:56.765"
"153.0, -1893.7291972314356, -1896.7243309884468, -1891.8740024416452, -1895.9196681880558, -1892.6116100086701, -1885.5708105052486, -1894.1538803760864, -1892.164575119564, 0.02, 0.978, 0.158, 192.0, 0.0, 0.0, 0.0, 0.0, 0.0, 0.0, 0.0, 0.0, 0.0, 1.645905776772472E9, 0.0, 2022-02-26 15:02:56.772"
"154.0, -1893.8409559537122, -1896.813737966268, -1891.784595463824, -1896.0984821436982, -1892.4774995419384, -1885.749624460891, -1894.2432873539076, -1892.164575119564, 0.02, 0.978, 0.158, 192.0, 0.0, 0.0, 0.0, 0.0, 0.0, 0.0, 0.0, 0.0, 0.0, 1.64590577677248E9, 0.0, 2022-02-26 15:02:56.772"
"155.0, -1893.7291972314356, -1896.6572757550807, -1891.9857611639216, -1895.6961507435026, -1892.4998512863938, -1885.5037552718825, -1894.4444530540054, -1892.23163035293, 0.03, 0.994, 0.166, 192.0, 0.0, 240.0, 31.0, 16.0, 5.0, 48.0, 0.0, 0.0, 0.0, 1.645905776779796E9, 0.0, 2022-02-26 15:02:56.779"
"156.0, -1893.5950867647036, -1896.523165288349, -1891.8740024416452, -1895.584392021226, -1892.4104443085726, -1885.5261070163378, -1894.131528631631, -1892.2763338418406, 0.03, 0.994, 0.166, 192.0, 0.0, 0.0, 0.0, 0.0, 0.0, 0.0, 0.0, 0.0, 0.0, 1.645905776786648E9, 0.0, 2022-02-26 15:02:56.786"
"157.0, -1893.7962524648015, -1896.5678687772595, -1891.8740024416452, -1895.651447254592, -1892.4998512863938, -1885.8837349276228, -1893.975066420444, -1892.298685586296, 0.03, 0.994, 0.166, 192.0, 0.0, 0.0, 0.0, 0.0, 0.0, 0.0, 0.0, 0.0, 0.0, 1.645905776786658E9, 0.0, 2022-02-26 15:02:56.786"
"158.0, -1893.7962524648015, -1896.4784617994383, -1891.7398919749132, -1895.6737989990472, -1892.1198716306535, -1885.8390314387123, -1894.1091768871759, -1892.3210373307513, 0.03, 0.994, 0.166, 192.0, 0.0, 0.0, 0.0, 0.0, 0.0, 0.0, 0.0, 0.0, 0.0, 1.645905776794325E9, 0.0, 2022-02-26 15:02:56.794"
"159.0, -1893.6397902536144, -1896.4114065660724, -1891.8292989527345, -1895.5620402767709, -1891.941057675011, -1885.5037552718825, -1894.1091768871759, -1892.3657408196618, 0.03, 0.994, 0.166, 192.0, 0.0, 0.0, 0.0, 0.0, 0.0, 0.0, 0.0, 0.0, 0.0, 1.645905776794353E9, 0.0, 2022-02-26 15:02:56.794"
"160.0, -1893.6621419980697, -1896.4561100549831, -1891.806947208279, -1895.5396885323155, -1892.3210373307513, -1885.5708105052486, -1894.0868251427205, -1892.2539820973852, 0.03, 0.994, 0.166, 192.0, 0.0, 0.0, 0.0, 0.0, 0.0, 0.0, 0.0, 0.0, 0.0, 1.645905776802227E9, 0.0, 2022-02-26 15:02:56.802"
"161.0, -1893.4386245535165, -1896.4337583105278, -1891.5610780192708, -1895.7408542324133, -1892.2092786084747, -1885.5261070163378, -1894.3997495650947, -1892.008112908377, 0.03, 0.994, 0.166, 192.0, 0.0, 0.0, 0.0, 0.0, 0.0, 0.0, 0.0, 0.0, 0.0, 1.645905776802236E9, 0.0, 2022-02-26 15:02:56.802"
"162.0, -1893.617438509159, -1896.3443513327065, -1891.6951884860027, -1895.8526129546897, -1892.2763338418406, -1885.5708105052486, -1894.3550460761842, -1892.0975198861981, 0.03, 0.994, 0.166, 192.0, 0.0, 0.0, 0.0, 0.0, 0.0, 0.0, 0.0, 0.0, 0.0, 1.645905776810127E9, 0.0, 2022-02-26 15:02:56.810"
"163.0, -1893.460976297972, -1896.5678687772595, -1891.8963541861003, -1895.7408542324133, -1892.4774995419384, -1885.5261070163378, -1894.2432873539076, -1892.164575119564, 0.03, 0.994, 0.166, 192.0, 0.0, 0.0, 0.0, 0.0, 0.0, 0.0, 0.0, 0.0, 0.0, 1.64590577681014E9, 0.0, 2022-02-26 15:02:56.810"
"164.0, -1893.8186042092568, -1896.6125722661702, -1892.0751681417428, -1895.718502487958, -1892.5669065197596, -1885.7049209719803, -1893.9974181648993, -1892.1422233751089, 0.03, 0.994, 0.166, 192.0, 0.0, 0.0, 0.0, 0.0, 0.0, 0.0, 0.0, 0.0, 0.0, 1.645905776816966E9, 0.0, 2022-02-26 15:02:56.816"
"165.0, -1893.7291972314356, -1896.7019792439914, -1891.8516506971898, -1895.8973164436004, -1892.4774995419384, -1885.9060866720781, -1893.908011187078, -1892.2539820973852, 0.032, 0.994, 0.17200000000000001, 192.0, 1.0, 0.0, 31.0, 16.0, 5.0, 96.0, 0.0, 0.0, 0.0, 1.645905776816976E9, 0.0, 2022-02-26 15:02:56.816"
"166.0, -1893.5056797868824, -1896.4784617994383, -1891.6057815081815, -1895.7408542324133, -1892.3657408196618, -1885.8613831831674, -1893.975066420444, -1892.0975198861981, 0.032, 0.994, 0.17200000000000001, 192.0, 0.0, 0.0, 0.0, 0.0, 0.0, 0.0, 0.0, 0.0, 0.0, 1.645905776824817E9, 0.0, 2022-02-26 15:02:56.824"
"167.0, -1893.6621419980697, -1896.5678687772595, -1892.008112908377, -1895.874964699145, -1892.23163035293, -1885.7943279498015, -1894.2432873539076, -1892.2092786084747, 0.032, 0.994, 0.17200000000000001, 192.0, 0.0, 0.0, 0.0, 0.0, 0.0, 0.0, 0.0, 0.0, 0.0, 1.645905776824824E9, 0.0, 2022-02-26 15:02:56.824"
"168.0, -1893.6397902536144, -1896.366703077162, -1891.941057675011, -1896.009075165877, -1892.3433890752065, -1885.5708105052486, -1894.2209356094522, -1892.3210373307513, 0.032, 0.994, 0.17200000000000001, 192.0, 0.0, 0.0, 0.0, 0.0, 0.0, 0.0, 0.0, 0.0, 0.0, 1.645905776832904E9, 0.0, 2022-02-26 15:02:56.832"
"169.0, -1893.6844937425249, -1896.3443513327065, -1891.7622437193686, -1895.8079094657792, -1892.2539820973852, -1885.459051782972, -1894.1762321205417, -1892.1869268640194, 0.032, 0.994, 0.17200000000000001, 192.0, 0.0, 0.0, 0.0, 0.0, 0.0, 0.0, 0.0, 0.0, 0.0, 1.645905776832933E9, 0.0, 2022-02-26 15:02:56.832"
"170.0, -1893.7291972314356, -1896.5455170328044, -1891.8963541861003, -1895.7855577213238, -1892.0528163972876, -1885.615513994159, -1894.2432873539076, -1891.8963541861003, 0.032, 0.994, 0.17200000000000001, 192.0, 0.0, 0.0, 0.0, 0.0, 0.0, 0.0, 0.0, 0.0, 0.0, 1.645905776839917E9, 0.0, 2022-02-26 15:02:56.839"
"171.0, -1893.7068454869802, -1896.679627499536, -1891.9187059305557, -1895.6961507435026, -1892.4998512863938, -1885.5261070163378, -1893.9974181648993, -1892.164575119564, 0.032, 0.994, 0.17200000000000001, 192.0, 0.0, 0.0, 0.0, 0.0, 0.0, 0.0, 0.0, 0.0, 0.0, 1.645905776846467E9, 0.0, 2022-02-26 15:02:56.846"
"172.0, -1893.617438509159, -1896.5008135438936, -1891.6728367415474, -1895.6737989990472, -1892.5445547753043, -1885.5037552718825, -1893.8633076981673, -1892.0751681417428, 0.032, 0.994, 0.17200000000000001, 192.0, 0.0, 0.0, 0.0, 0.0, 0.0, 0.0, 0.0, 0.0, 0.0, 1.645905776846475E9, 0.0, 2022-02-26 15:02:56.846"
"173.0, -1893.6844937425249, -1896.2549443548853, -1891.8740024416452, -1895.6737989990472, -1892.1869268640194, -1885.5261070163378, -1894.0868251427205, -1892.0304646528323, 0.032, 0.994, 0.17200000000000001, 192.0, 0.0, 0.0, 0.0, 0.0, 0.0, 0.0, 0.0, 0.0, 0.0, 1.645905776861207E9, 0.0, 2022-02-26 15:02:56.861"
"174.0, -1893.617438509159, -1896.6349240106256, -1891.8292989527345, -1895.6737989990472, -1892.0975198861981, -1885.5484587607932, -1894.131528631631, -1891.8740024416452, 0.032, 0.994, 0.17200000000000001, 192.0, 0.0, 0.0, 0.0, 0.0, 0.0, 0.0, 0.0, 0.0, 0.0, 1.645905776861227E9, 0.0, 2022-02-26 15:02:56.861"
"175.0, -1893.6844937425249, -1896.813737966268, -1892.0528163972876, -1895.7408542324133, -1892.4327960530277, -1885.682569227525, -1894.2432873539076, -1892.0528163972876, 0.03, 0.978, 0.17400000000000002, 192.0, 0.0, 240.0, 30.0, 144.0, 5.0, 112.0, 0.0, 0.0, 0.0, 1.645905776866945E9, 0.0, 2022-02-26 15:02:56.866"
"176.0, -1893.7962524648015, -1896.5902205217149, -1891.8740024416452, -1895.9643716769663, -1892.522203030849, -1885.7272727164357, -1894.3103425872735, -1892.2092786084747, 0.03, 0.978, 0.17400000000000002, 192.0, 0.0, 0.0, 0.0, 0.0, 0.0, 0.0, 0.0, 0.0, 0.0, 1.645905776866954E9, 0.0, 2022-02-26 15:02:56.866"
"177.0, -1893.8186042092568, -1896.6572757550807, -1891.6057815081815, -1895.8079094657792, -1892.6563134975809, -1885.5931622497037, -1894.131528631631, -1892.4327960530277, 0.03, 0.978, 0.17400000000000002, 192.0, 0.0, 0.0, 0.0, 0.0, 0.0, 0.0, 0.0, 0.0, 0.0, 1.645905776873061E9, 0.0, 2022-02-26 15:02:56.873"
"178.0, -1893.773900720346, -1896.5455170328044, -1891.784595463824, -1895.8973164436004, -1892.745720475402, -1885.8613831831674, -1894.2432873539076, -1892.1869268640194, 0.03, 0.978, 0.17400000000000002, 192.0, 0.0, 0.0, 0.0, 0.0, 0.0, 0.0, 0.0, 0.0, 0.0, 1.645905776873068E9, 0.0, 2022-02-26 15:02:56.873"
"179.0, -1893.3715693201507, -1896.5455170328044, -1891.941057675011, -1895.7632059768684, -1892.2763338418406, -1885.8613831831674, -1894.131528631631, -1891.8963541861003, 0.03, 0.978, 0.17400000000000002, 192.0, 0.0, 0.0, 0.0, 0.0, 0.0, 0.0, 0.0, 0.0, 0.0, 1.645905776879124E9, 0.0, 2022-02-26 15:02:56.879"
"180.0, -1893.6621419980697, -1896.7913862218127, -1891.8963541861003, -1895.9643716769663, -1892.23163035293, -1885.5708105052486, -1894.2209356094522, -1891.7622437193686, 0.03, 0.978, 0.17400000000000002, 192.0, 0.0, 0.0, 0.0, 0.0, 0.0, 0.0, 0.0, 0.0, 0.0, 1.645905776879173E9, 0.0, 2022-02-26 15:02:56.879"
"181.0, -1893.7962524648015, -1896.5455170328044, -1892.164575119564, -1895.8526129546897, -1892.4327960530277, -1885.6378657386144, -1894.265639098363, -1891.8292989527345, 0.03, 0.978, 0.17400000000000002, 192.0, 0.0, 0.0, 0.0, 0.0, 0.0, 0.0, 0.0, 0.0, 0.0, 1.645905776885363E9, 0.0, 2022-02-26 15:02:56.885"
"182.0, -1893.5280315313378, -1896.2996478437958, -1892.1422233751089, -1895.874964699145, -1892.455147797483, -1885.7943279498015, -1894.2209356094522, -1892.0751681417428, 0.03, 0.978, 0.17400000000000002, 192.0, 0.0, 0.0, 0.0, 0.0, 0.0, 0.0, 0.0, 0.0, 0.0, 1.645905776885376E9, 0.0, 2022-02-26 15:02:56.885"
"183.0, -1893.7068454869802, -1896.4784617994383, -1891.8516506971898, -1895.6737989990472, -1892.3433890752065, -1885.5037552718825, -1893.908011187078, -1892.23163035293, 0.03, 0.978, 0.17400000000000002, 192.0, 0.0, 0.0, 0.0, 0.0, 0.0, 0.0, 0.0, 0.0, 0.0, 1.645905776893044E9, 0.0, 2022-02-26 15:02:56.893"
"184.0, -1893.6397902536144, -1896.5678687772595, -1891.7175402304579, -1895.8973164436004, -1892.4998512863938, -1885.5037552718825, -1894.1762321205417, -1892.298685586296, 0.03, 0.978, 0.17400000000000002, 192.0, 0.0, 0.0, 0.0, 0.0, 0.0, 0.0, 0.0, 0.0, 0.0, 1.645905776893053E9, 0.0, 2022-02-26 15:02:56.893"
"185.0, -1893.7291972314356, -1896.7243309884468, -1891.6057815081815, -1895.8302612102345, -1892.4998512863938, -1885.9060866720781, -1894.198583864997, -1892.2539820973852, 0.032, 0.976, 0.176, 192.0, 1.0, 0.0, 30.0, 128.0, 5.0, 128.0, 0.0, 0.0, 0.0, 1.645905776899234E9, 0.0, 2022-02-26 15:02:56.899"
"186.0, -1893.5727350202485, -1896.7913862218127, -1891.650484997092, -1896.0314269103321, -1892.5669065197596, -1885.7272727164357, -1894.1762321205417, -1892.4327960530277, 0.032, 0.976, 0.176, 192.0, 0.0, 0.0, 0.0, 0.0, 0.0, 0.0, 0.0, 0.0, 0.0, 1.645905776899241E9, 0.0, 2022-02-26 15:02:56.899"
"187.0, -1893.908011187078, -1896.4784617994383, -1891.8963541861003, -1895.9196681880558, -1892.4327960530277, -1885.7272727164357, -1894.2879908428183, -1892.4104443085726, 0.032, 0.976, 0.176, 192.0, 0.0, 0.0, 0.0, 0.0, 0.0, 0.0, 0.0, 0.0, 0.0, 1.645905776907005E9, 0.0, 2022-02-26 15:02:56.907"
"188.0, -1893.6844937425249, -1896.4114065660724, -1892.0528163972876, -1895.5173367878601, -1892.3210373307513, -1885.5261070163378, -1894.198583864997, -1892.298685586296, 0.032, 0.976, 0.176, 192.0, 0.0, 0.0, 0.0, 0.0, 0.0, 0.0, 0.0, 0.0, 0.0, 1.645905776915166E9, 0.0, 2022-02-26 15:02:56.915"
"189.0, -1893.5503832757931, -1896.2996478437958, -1891.8292989527345, -1895.7408542324133, -1892.2539820973852, -1885.5261070163378, -1894.1762321205417, -1892.1198716306535, 0.032, 0.976, 0.176, 192.0, 0.0, 0.0, 0.0, 0.0, 0.0, 0.0, 0.0, 0.0, 0.0, 1.645905776915176E9, 0.0, 2022-02-26 15:02:56.915"
"190.0, -1893.773900720346, -1896.7690344773573, -1891.784595463824, -1895.718502487958, -1892.2763338418406, -1885.7272727164357, -1894.3326943317288, -1892.0975198861981, 0.032, 0.976, 0.176, 192.0, 0.0, 0.0, 0.0, 0.0, 0.0, 0.0, 0.0, 0.0, 0.0, 1.645905776923022E9, 0.0, 2022-02-26 15:02:56.923"
"191.0, -1893.7291972314356, -1896.5902205217149, -1891.7175402304579, -1895.4726332989496, -1892.164575119564, -1885.3919965496061, -1894.2209356094522, -1892.3210373307513, 0.032, 0.976, 0.176, 192.0, 0.0, 0.0, 0.0, 0.0, 0.0, 0.0, 0.0, 0.0, 0.0, 1.645905776923048E9, 0.0, 2022-02-26 15:02:56.923"
"192.0, -1893.5727350202485, -1896.4784617994383, -1891.9634094194664, -1895.7632059768684, -1892.23163035293, -1885.5484587607932, -1894.1762321205417, -1891.8963541861003, 0.032, 0.976, 0.176, 192.0, 0.0, 0.0, 0.0, 0.0, 0.0, 0.0, 0.0, 0.0, 0.0, 1.645905776930697E9, 0.0, 2022-02-26 15:02:56.930"
"193.0, -1894.0644733982651, -1896.7019792439914, -1891.9634094194664, -1895.7632059768684, -1892.5445547753043, -1885.749624460891, -1894.3997495650947, -1891.941057675011, 0.032, 0.976, 0.176, 192.0, 0.0, 0.0, 0.0, 0.0, 0.0, 0.0, 0.0, 0.0, 0.0, 1.645905776930707E9, 0.0, 2022-02-26 15:02:56.930"
"194.0, -1894.0868251427205, -1896.6572757550807, -1891.8740024416452, -1895.7855577213238, -1892.3880925641172, -1885.6378657386144, -1894.2209356094522, -1892.1869268640194, 0.032, 0.976, 0.176, 192.0, 0.0, 0.0, 0.0, 0.0, 0.0, 0.0, 0.0, 0.0, 0.0, 1.645905776938894E9, 0.0, 2022-02-26 15:02:56.938"
"195.0, -1894.1091768871759, -1896.7019792439914, -1891.8963541861003, -1895.874964699145, -1892.522203030849, -1885.8613831831674, -1894.265639098363, -1892.298685586296, 0.032, 0.968, 0.19, 192.0, 1.0, 0.0, 30.0, 64.0, 5.0, 240.0, 0.0, 0.0, 0.0, 1.645905776938906E9, 0.0, 2022-02-26 15:02:56.938"
"196.0, -1893.6844937425249, -1896.366703077162, -1891.784595463824, -1895.6737989990472, -1892.3210373307513, -1885.973141905444, -1894.3326943317288, -1892.1198716306535, 0.032, 0.968, 0.19, 192.0, 0.0, 0.0, 0.0, 0.0, 0.0, 0.0, 0.0, 0.0, 0.0, 1.645905776946061E9, 0.0, 2022-02-26 15:02:56.946"
"197.0, -1893.5727350202485, -1896.3443513327065, -1891.7622437193686, -1895.5620402767709, -1892.0528163972876, -1885.9507901609886, -1893.9527146759885, -1891.8740024416452, 0.032, 0.968, 0.19, 192.0, 0.0, 0.0, 0.0, 0.0, 0.0, 0.0, 0.0, 0.0, 0.0, 1.645905776946075E9, 0.0, 2022-02-26 15:02:56.946"
"198.0, -1893.773900720346, -1896.813737966268, -1891.784595463824, -1895.6737989990472, -1892.2092786084747, -1885.9507901609886, -1894.3326943317288, -1892.008112908377, 0.032, 0.968, 0.19, 192.0, 0.0, 0.0, 0.0, 0.0, 0.0, 0.0, 0.0, 0.0, 0.0, 1.645905776952046E9, 0.0, 2022-02-26 15:02:56.952"
"199.0, -1893.7962524648015, -1896.679627499536, -1891.7622437193686, -1895.7408542324133, -1892.3210373307513, -1885.7943279498015, -1894.2209356094522, -1891.9857611639216, 0.032, 0.968, 0.19, 192.0, 0.0, 0.0, 0.0, 0.0, 0.0, 0.0, 0.0, 0.0, 0.0, 1.645905776952057E9, 0.0, 2022-02-26 15:02:56.952"
"200.0, -1893.6844937425249, -1896.6349240106256, -1891.7622437193686, -1895.6737989990472, -1892.455147797483, -1885.6378657386144, -1894.0421216538098, -1891.9187059305557, 0.032, 0.968, 0.19, 192.0, 0.0, 0.0, 0.0, 0.0, 0.0, 0.0, 0.0, 0.0, 0.0, 1.645905776960728E9, 0.0, 2022-02-26 15:02:56.960"
"201.0, -1893.617438509159, -1896.746682732902, -1891.941057675011, -1895.7632059768684, -1892.4774995419384, -1885.7272727164357, -1894.2879908428183, -1892.2092786084747, 0.032, 0.968, 0.19, 192.0, 0.0, 0.0, 0.0, 0.0, 0.0, 0.0, 0.0, 0.0, 0.0, 1.645905776960752E9, 0.0, 2022-02-26 15:02:56.960"
"202.0, -1893.6397902536144, -1896.746682732902, -1891.9634094194664, -1895.651447254592, -1892.4998512863938, -1885.9284384165335, -1894.2879908428183, -1892.164575119564, 0.032, 0.968, 0.19, 192.0, 0.0, 0.0, 0.0, 0.0, 0.0, 0.0, 0.0, 0.0, 0.0, 1.645905776967112E9, 0.0, 2022-02-26 15:02:56.967"
"203.0, -1893.7962524648015, -1896.7243309884468, -1891.8292989527345, -1895.7855577213238, -1892.6786652420362, -1885.9284384165335, -1894.3103425872735, -1892.0751681417428, 0.032, 0.968, 0.19, 192.0, 0.0, 0.0, 0.0, 0.0, 0.0, 0.0, 0.0, 0.0, 0.0, 1.64590577697502E9, 0.0, 2022-02-26 15:02:56.975"
"204.0, -1893.7962524648015, -1896.4784617994383, -1891.5834297637261, -1895.6961507435026, -1892.3657408196618, -1885.8390314387123, -1894.265639098363, -1891.8292989527345, 0.032, 0.964, 0.176, 192.0, 1.0, 0.0, 30.0, 32.0, 5.0, 128.0, 0.0, 0.0, 0.0, 1.645905776975028E9, 0.0, 2022-02-26 15:02:56.975"
"205.0, -1893.4833280424273, -1896.2102408659746, -1891.5610780192708, -1895.9196681880558, -1892.0975198861981, -1885.5037552718825, -1894.0421216538098, -1891.806947208279, 0.032, 0.964, 0.176, 192.0, 0.0, 0.0, 0.0, 0.0, 0.0, 0.0, 0.0, 0.0, 0.0, 1.645905776983276E9, 0.0, 2022-02-26 15:02:56.983"
"206.0, -1893.773900720346, -1896.2772960993407, -1891.5610780192708, -1895.9196681880558, -1892.1422233751089, -1885.5261070163378, -1893.975066420444, -1891.941057675011, 0.032, 0.964, 0.176, 192.0, 0.0, 0.0, 0.0, 0.0, 0.0, 0.0, 0.0, 0.0, 0.0, 1.645905776983296E9, 0.0, 2022-02-26 15:02:56.983"
"207.0, -1893.8409559537122, -1896.5008135438936, -1891.6728367415474, -1895.7632059768684, -1892.3880925641172, -1885.7049209719803, -1893.9974181648993, -1891.9857611639216, 0.032, 0.964, 0.176, 192.0, 0.0, 0.0, 0.0, 0.0, 0.0, 0.0, 0.0, 0.0, 0.0, 1.645905776990013E9, 0.0, 2022-02-26 15:02:56.990"
"208.0, -1893.5056797868824, -1896.6125722661702, -1891.8740024416452, -1895.6961507435026, -1892.6339617531255, -1885.682569227525, -1894.1091768871759, -1892.1198716306535, 0.032, 0.964, 0.176, 192.0, 0.0, 0.0, 0.0, 0.0, 0.0, 0.0, 0.0, 0.0, 0.0, 1.645905776990033E9, 0.0, 2022-02-26 15:02:56.990"
"209.0, -1893.8856594426227, -1896.7690344773573, -1891.7175402304579, -1895.7855577213238, -1892.7233687309467, -1885.5484587607932, -1894.0868251427205, -1892.008112908377, 0.032, 0.964, 0.176, 192.0, 0.0, 0.0, 0.0, 0.0, 0.0, 0.0, 0.0, 0.0, 0.0, 1.645905776997604E9, 0.0, 2022-02-26 15:02:56.997"
"210.0, -1893.6621419980697, -1896.679627499536, -1891.494022785905, -1895.9196681880558, -1892.3210373307513, -1885.5261070163378, -1894.131528631631, -1892.0528163972876, 0.032, 0.964, 0.176, 192.0, 0.0, 0.0, 0.0, 0.0, 0.0, 0.0, 0.0, 0.0, 0.0, 1.645905776997613E9, 0.0, 2022-02-26 15:02:56.997"
"211.0, -1893.773900720346, -1896.5902205217149, -1891.6728367415474, -1895.5620402767709, -1892.4998512863938, -1885.7943279498015, -1894.2209356094522, -1891.8740024416452, 0.032, 0.964, 0.176, 192.0, 0.0, 0.0, 0.0, 0.0, 0.0, 0.0, 0.0, 0.0, 0.0, 1.645905777005659E9, 0.0, 2022-02-26 15:02:57.005"
"212.0, -1893.7291972314356, -1896.5008135438936, -1892.0304646528323, -1895.6290955101367, -1892.522203030849, -1885.7049209719803, -1894.2209356094522, -1891.941057675011, 0.032, 0.964, 0.176, 192.0, 0.0, 0.0, 0.0, 0.0, 0.0, 0.0, 0.0, 0.0, 0.0, 1.645905777005668E9, 0.0, 2022-02-26 15:02:57.005"
"213.0, -1893.5056797868824, -1896.389054821617, -1891.784595463824, -1895.718502487958, -1892.455147797483, -1885.459051782972, -1894.2432873539076, -1891.9857611639216, 0.032, 0.964, 0.176, 192.0, 0.0, 0.0, 0.0, 0.0, 0.0, 0.0, 0.0, 0.0, 0.0, 1.645905777012793E9, 0.0, 2022-02-26 15:02:57.012"
"214.0, -1893.773900720346, -1896.679627499536, -1891.8292989527345, -1895.8079094657792, -1892.4327960530277, -1885.6378657386144, -1894.2432873539076, -1891.8292989527345, 0.038, 0.9540000000000001, 0.16, 192.0, 1.0, 48.0, 29.0, 208.0, 5.0, 0.0, 0.0, 0.0, 0.0, 1.645905777012806E9, 0.0, 2022-02-26 15:02:57.012"
"215.0, -1893.7962524648015, -1896.4114065660724, -1891.9634094194664, -1895.6961507435026, -1892.2092786084747, -1885.4143482940613, -1894.2209356094522, -1891.941057675011, 0.038, 0.9540000000000001, 0.16, 192.0, 0.0, 0.0, 0.0, 0.0, 0.0, 0.0, 0.0, 0.0, 0.0, 1.645905777020488E9, 0.0, 2022-02-26 15:02:57.020"
"216.0, -1893.9527146759885, -1896.5902205217149, -1891.8292989527345, -1895.4726332989496, -1892.23163035293, -1885.6378657386144, -1894.265639098363, -1892.0304646528323, 0.038, 0.9540000000000001, 0.16, 192.0, 0.0, 0.0, 0.0, 0.0, 0.0, 0.0, 0.0, 0.0, 0.0, 1.645905777020519E9, 0.0, 2022-02-26 15:02:57.020"
"217.0, -1893.7291972314356, -1896.6349240106256, -1891.784595463824, -1895.5620402767709, -1892.4104443085726, -1885.7272727164357, -1894.2432873539076, -1891.941057675011, 0.038, 0.9540000000000001, 0.16, 192.0, 0.0, 0.0, 0.0, 0.0, 0.0, 0.0, 0.0, 0.0, 0.0, 1.645905777028664E9, 0.0, 2022-02-26 15:02:57.028"
"218.0, -1893.7068454869802, -1896.746682732902, -1891.941057675011, -1895.6290955101367, -1892.6116100086701, -1885.5708105052486, -1894.1091768871759, -1892.0975198861981, 0.038, 0.9540000000000001, 0.16, 192.0, 0.0, 0.0, 0.0, 0.0, 0.0, 0.0, 0.0, 0.0, 0.0, 1.64590577703478E9, 0.0, 2022-02-26 15:02:57.034"
"219.0, -1893.6844937425249, -1896.4784617994383, -1891.6281332526366, -1895.6067437656814, -1892.522203030849, -1885.682569227525, -1894.0868251427205, -1892.3433890752065, 0.038, 0.9540000000000001, 0.16, 192.0, 0.0, 0.0, 0.0, 0.0, 0.0, 0.0, 0.0, 0.0, 0.0, 1.645905777034797E9, 0.0, 2022-02-26 15:02:57.034"
"220.0, -1893.460976297972, -1896.4561100549831, -1891.8292989527345, -1895.6290955101367, -1892.3210373307513, -1885.7943279498015, -1894.131528631631, -1892.5669065197596, 0.038, 0.9540000000000001, 0.16, 192.0, 0.0, 0.0, 0.0, 0.0, 0.0, 0.0, 0.0, 0.0, 0.0, 1.645905777041934E9, 0.0, 2022-02-26 15:02:57.041"
"221.0, -1893.5503832757931, -1896.1878891215194, -1891.8292989527345, -1895.8302612102345, -1892.4774995419384, -1885.6602174830698, -1894.3103425872735, -1892.3657408196618, 0.038, 0.9540000000000001, 0.16, 192.0, 0.0, 0.0, 0.0, 0.0, 0.0, 0.0, 0.0, 0.0, 0.0, 1.645905777041944E9, 0.0, 2022-02-26 15:02:57.041"
"222.0, -1893.5727350202485, -1896.746682732902, -1891.8516506971898, -1895.7855577213238, -1892.3210373307513, -1885.7943279498015, -1894.0197699093546, -1891.806947208279, 0.038, 0.9540000000000001, 0.16, 192.0, 0.0, 0.0, 0.0, 0.0, 0.0, 0.0, 0.0, 0.0, 0.0, 1.645905777049954E9, 0.0, 2022-02-26 15:02:57.049"
"223.0, -1893.3045140867848, -1896.7913862218127, -1891.650484997092, -1895.6961507435026, -1892.3210373307513, -1885.973141905444, -1894.1091768871759, -1891.8963541861003, 0.038, 0.9540000000000001, 0.16, 192.0, 0.0, 0.0, 0.0, 0.0, 0.0, 0.0, 0.0, 0.0, 0.0, 1.645905777049961E9, 0.0, 2022-02-26 15:02:57.049"
"224.0, -1893.2821623423295, -1896.7690344773573, -1891.5163745303603, -1895.7408542324133, -1892.3210373307513, -1885.7943279498015, -1894.0197699093546, -1891.8963541861003, 0.042, 0.978, 0.15, 192.0, 1.0, 80.0, 30.0, 144.0, 4.0, 176.0, 0.0, 0.0, 0.0, 1.645905777057065E9, 0.0, 2022-02-26 15:02:57.057"
"225.0, -1893.5950867647036, -1896.4784617994383, -1891.806947208279, -1895.942019932511, -1892.5445547753043, -1885.459051782972, -1894.2209356094522, -1892.0975198861981, 0.042, 0.978, 0.15, 192.0, 0.0, 0.0, 0.0, 0.0, 0.0, 0.0, 0.0, 0.0, 0.0, 1.645905777057076E9, 0.0, 2022-02-26 15:02:57.057"
"226.0, -1893.5727350202485, -1896.6572757550807, -1891.8292989527345, -1895.874964699145, -1892.5445547753043, -1885.6378657386144, -1894.0197699093546, -1892.0528163972876, 0.042, 0.978, 0.15, 192.0, 0.0, 0.0, 0.0, 0.0, 0.0, 0.0, 0.0, 0.0, 0.0, 1.645905777064607E9, 0.0, 2022-02-26 15:02:57.064"
"227.0, -1893.7291972314356, -1896.7243309884468, -1891.8292989527345, -1895.7408542324133, -1892.164575119564, -1885.5484587607932, -1894.3326943317288, -1892.0975198861981, 0.042, 0.978, 0.15, 192.0, 0.0, 0.0, 0.0, 0.0, 0.0, 0.0, 0.0, 0.0, 0.0, 1.645905777064619E9, 0.0, 2022-02-26 15:02:57.064"
"228.0, -1893.6621419980697, -1896.366703077162, -1891.8516506971898, -1895.7408542324133, -1892.1422233751089, -1885.5037552718825, -1894.2209356094522, -1892.3433890752065, 0.042, 0.978, 0.15, 192.0, 0.0, 0.0, 0.0, 0.0, 0.0, 0.0, 0.0, 0.0, 0.0, 1.645905777072774E9, 0.0, 2022-02-26 15:02:57.072"
"229.0, -1893.617438509159, -1896.2996478437958, -1891.806947208279, -1895.8079094657792, -1892.3657408196618, -1885.9284384165335, -1894.131528631631, -1892.1422233751089, 0.042, 0.978, 0.15, 192.0, 0.0, 0.0, 0.0, 0.0, 0.0, 0.0, 0.0, 0.0, 0.0, 1.645905777072787E9, 0.0, 2022-02-26 15:02:57.072"
"230.0, -1893.8409559537122, -1896.5678687772595, -1891.7175402304579, -1895.8526129546897, -1892.3880925641172, -1885.7719762053462, -1894.198583864997, -1892.1198716306535, 0.042, 0.978, 0.15, 192.0, 0.0, 0.0, 0.0, 0.0, 0.0, 0.0, 0.0, 0.0, 0.0, 1.645905777080879E9, 0.0, 2022-02-26 15:02:57.080"
"231.0, -1893.751548975891, -1896.5902205217149, -1891.8292989527345, -1895.9196681880558, -1892.455147797483, -1885.7719762053462, -1894.2209356094522, -1891.8292989527345, 0.042, 0.978, 0.15, 192.0, 0.0, 0.0, 0.0, 0.0, 0.0, 0.0, 0.0, 0.0, 0.0, 1.6459057770809E9, 0.0, 2022-02-26 15:02:57.080"
"232.0, -1893.6621419980697, -1896.5902205217149, -1891.9187059305557, -1895.874964699145, -1892.3433890752065, -1885.8390314387123, -1894.2432873539076, -1892.0304646528323, 0.042, 0.978, 0.15, 192.0, 0.0, 0.0, 0.0, 0.0, 0.0, 0.0, 0.0, 0.0, 0.0, 1.645905777086949E9, 0.0, 2022-02-26 15:02:57.086"
"233.0, -1893.5503832757931, -1896.7690344773573, -1892.0528163972876, -1895.7855577213238, -1892.164575119564, -1885.2802378273295, -1894.0644733982651, -1892.2763338418406, 0.042, 0.978, 0.15, 192.0, 0.0, 0.0, 0.0, 0.0, 0.0, 0.0, 0.0, 0.0, 0.0, 1.645905777094141E9, 0.0, 2022-02-26 15:02:57.094"
"234.0, -1893.773900720346, -1896.8584414551785, -1892.298685586296, -1895.7408542324133, -1892.1198716306535, -1885.4143482940613, -1893.908011187078, -1892.0975198861981, 0.038, 0.986, 0.152, 192.0, 1.0, 48.0, 30.0, 208.0, 4.0, 192.0, 0.0, 0.0, 0.0, 1.645905777094152E9, 0.0, 2022-02-26 15:02:57.094"
"235.0, -1893.751548975891, -1896.7913862218127, -1892.164575119564, -1895.942019932511, -1892.3433890752065, -1885.7272727164357, -1894.2879908428183, -1892.164575119564, 0.038, 0.986, 0.152, 192.0, 0.0, 0.0, 0.0, 0.0, 0.0, 0.0, 0.0, 0.0, 0.0, 1.645905777102724E9, 0.0, 2022-02-26 15:02:57.102"
"236.0, -1893.7291972314356, -1896.7019792439914, -1891.8740024416452, -1895.7855577213238, -1892.4998512863938, -1885.749624460891, -1894.3326943317288, -1892.4327960530277, 0.038, 0.986, 0.152, 192.0, 0.0, 0.0, 0.0, 0.0, 0.0, 0.0, 0.0, 0.0, 0.0, 1.645905777102735E9, 0.0, 2022-02-26 15:02:57.102"
"237.0, -1893.7068454869802, -1896.746682732902, -1891.8740024416452, -1895.6290955101367, -1892.4998512863938, -1885.9284384165335, -1894.131528631631, -1892.455147797483, 0.038, 0.986, 0.152, 192.0, 0.0, 0.0, 0.0, 0.0, 0.0, 0.0, 0.0, 0.0, 0.0, 1.645905777110691E9, 0.0, 2022-02-26 15:02:57.110"
"238.0, -1893.751548975891, -1896.5678687772595, -1891.7398919749132, -1895.6067437656814, -1892.4327960530277, -1885.5708105052486, -1894.2879908428183, -1892.2092786084747, 0.038, 0.986, 0.152, 192.0, 0.0, 0.0, 0.0, 0.0, 0.0, 0.0, 0.0, 0.0, 0.0, 1.6459057771107E9, 0.0, 2022-02-26 15:02:57.110"
"239.0, -1893.5503832757931, -1896.4114065660724, -1891.8740024416452, -1895.5620402767709, -1892.164575119564, -1885.8613831831674, -1894.1538803760864, -1892.1422233751089, 0.038, 0.986, 0.152, 192.0, 0.0, 0.0, 0.0, 0.0, 0.0, 0.0, 0.0, 0.0, 0.0, 1.645905777117431E9, 0.0, 2022-02-26 15:02:57.117"
"240.0, -1893.6844937425249, -1896.4337583105278, -1891.7622437193686, -1895.718502487958, -1892.3433890752065, -1885.7272727164357, -1894.0197699093546, -1892.1869268640194, 0.038, 0.986, 0.152, 192.0, 0.0, 0.0, 0.0, 0.0, 0.0, 0.0, 0.0, 0.0, 0.0, 1.645905777117449E9, 0.0, 2022-02-26 15:02:57.117"
"241.0, -1893.8409559537122, -1896.4784617994383, -1891.8963541861003, -1895.8079094657792, -1892.3657408196618, -1885.7719762053462, -1893.9974181648993, -1892.23163035293, 0.038, 0.986, 0.152, 192.0, 0.0, 0.0, 0.0, 0.0, 0.0, 0.0, 0.0, 0.0, 0.0, 1.645905777124965E9, 0.0, 2022-02-26 15:02:57.124"
"242.0, -1893.7962524648015, -1896.679627499536, -1892.0304646528323, -1895.7632059768684, -1892.5445547753043, -1885.8613831831674, -1894.0644733982651, -1892.4104443085726, 0.038, 0.986, 0.152, 192.0, 0.0, 0.0, 0.0, 0.0, 0.0, 0.0, 0.0, 0.0, 0.0, 1.645905777124973E9, 0.0, 2022-02-26 15:02:57.124"
"243.0, -1894.0644733982651, -1896.6349240106256, -1891.9857611639216, -1895.9643716769663, -1892.6116100086701, -1885.5931622497037, -1894.131528631631, -1892.3433890752065, 0.038, 0.986, 0.152, 192.0, 0.0, 0.0, 0.0, 0.0, 0.0, 0.0, 0.0, 0.0, 0.0, 1.645905777132848E9, 0.0, 2022-02-26 15:02:57.132"
"244.0, -1894.0644733982651, -1896.6349240106256, -1891.7175402304579, -1895.9643716769663, -1892.3657408196618, -1885.7272727164357, -1894.2209356094522, -1891.9857611639216, 0.03, 0.996, 0.15, 192.0, 0.0, 240.0, 31.0, 32.0, 4.0, 176.0, 0.0, 0.0, 0.0, 1.645905777132858E9, 0.0, 2022-02-26 15:02:57.132"
"245.0, -1894.0197699093546, -1896.6349240106256, -1891.784595463824, -1895.9196681880558, -1892.3880925641172, -1885.749624460891, -1894.2879908428183, -1892.0528163972876, 0.03, 0.996, 0.15, 192.0, 0.0, 0.0, 0.0, 0.0, 0.0, 0.0, 0.0, 0.0, 0.0, 1.645905777140016E9, 0.0, 2022-02-26 15:02:57.140"
"246.0, -1893.6844937425249, -1896.2549443548853, -1891.941057675011, -1895.8302612102345, -1892.5445547753043, -1885.7272727164357, -1894.2432873539076, -1892.008112908377, 0.03, 0.996, 0.15, 192.0, 0.0, 0.0, 0.0, 0.0, 0.0, 0.0, 0.0, 0.0, 0.0, 1.645905777140037E9, 0.0, 2022-02-26 15:02:57.140"
"247.0, -1893.3492175756953, -1896.2102408659746, -1891.8292989527345, -1895.8079094657792, -1892.522203030849, -1885.5037552718825, -1894.3103425872735, -1892.0528163972876, 0.03, 0.996, 0.15, 192.0, 0.0, 0.0, 0.0, 0.0, 0.0, 0.0, 0.0, 0.0, 0.0, 1.645905777146435E9, 0.0, 2022-02-26 15:02:57.146"
"248.0, -1893.5950867647036, -1896.6125722661702, -1891.8516506971898, -1895.651447254592, -1892.4327960530277, -1885.5037552718825, -1894.3550460761842, -1892.455147797483, 0.03, 0.996, 0.15, 192.0, 0.0, 0.0, 0.0, 0.0, 0.0, 0.0, 0.0, 0.0, 0.0, 1.645905777146444E9, 0.0, 2022-02-26 15:02:57.146"
"249.0, -1893.393921064606, -1896.9925519219105, -1891.5610780192708, -1895.8526129546897, -1892.3433890752065, -1885.8837349276228, -1894.1091768871759, -1892.3657408196618, 0.03, 0.996, 0.15, 192.0, 0.0, 0.0, 0.0, 0.0, 0.0, 0.0, 0.0, 0.0, 0.0, 1.64590577715446E9, 0.0, 2022-02-26 15:02:57.154"
"250.0, -1893.617438509159, -1896.8360897107232, -1891.6057815081815, -1895.9643716769663, -1892.3210373307513, -1885.682569227525, -1894.1762321205417, -1892.3880925641172, 0.03, 0.996, 0.15, 192.0, 0.0, 0.0, 0.0, 0.0, 0.0, 0.0, 0.0, 0.0, 0.0, 1.645905777162627E9, 0.0, 2022-02-26 15:02:57.162"
"251.0, -1893.5727350202485, -1896.7019792439914, -1891.9857611639216, -1895.8079094657792, -1892.0304646528323, -1885.4143482940613, -1894.1762321205417, -1892.008112908377, 0.03, 0.996, 0.15, 192.0, 0.0, 0.0, 0.0, 0.0, 0.0, 0.0, 0.0, 0.0, 0.0, 1.645905777162639E9, 0.0, 2022-02-26 15:02:57.162"
"252.0, -1273.8929717413155, -1276.709291542684, -1271.5013350845975, -1275.6587595532847, -1272.484811840631, -1265.9804542041368, -1274.2505996526004, -1272.0154252070697, 0.03, 0.996, 0.15, 192.0, 0.0, 0.0, 0.0, 0.0, 0.0, 0.0, 0.0, 0.0, 0.0, 1.645905777171932E9, 0.0, 2022-02-26 15:02:57.171"
"253.0, 1218.6171077033412, 1215.8901948797936, 1222.7074769386622, 1217.8571483918606, 1218.7065146811624, 1225.4790932511203, 1219.041790847992, 1222.0816280939137, 0.03, 0.996, 0.15, 192.0, 0.0, 0.0, 0.0, 0.0, 0.0, 0.0, 0.0, 0.0, 0.0, 1.645905777171939E9, 0.0, 2022-02-26 15:02:57.171"
"254.0, 1845.1812082745087, 1842.141371028587, 1849.2045222764639, 1844.3541937296623, 1844.8235803632238, 1851.5738071887265, 1845.583539674704, 1849.2715775098297, 0.026000000000000002, 0.996, 0.16, 192.0, 0.0, 208.0, 31.0, 32.0, 5.0, 0.0, 0.0, 0.0, 0.0, 1.645905777178566E9, 0.0, 2022-02-26 15:02:57.178"
"255.0, 1845.069449552232, 1842.2084262619528, 1849.2045222764639, 1844.331841985207, 1844.8682838521343, 1851.6408624220924, 1845.3823739746065, 1849.4727432099276, 0.026000000000000002, 0.996, 0.16, 192.0, 0.0, 0.0, 0.0, 0.0, 0.0, 0.0, 0.0, 0.0, 0.0, 1.645905777178577E9, 0.0, 2022-02-26 15:02:57.178"
"0.0, 1845.1588565300533, 1842.1860745174974, 1849.360984487651, 1844.2200832629305, 1844.8235803632238, 1852.043193822288, 1845.2259117634192, 1849.1151152986426, 0.026000000000000002, 0.996, 0.16, 192.0, 0.0, 0.0, 0.0, 0.0, 0.0, 0.0, 0.0, 0.0, 0.0, 1.64590577718811E9, 0.0, 2022-02-26 15:02:57.188"
"1.0, 1845.1812082745087, 1842.3201849842294, 1849.2492257653746, 1844.2200832629305, 1844.8906355965896, 1852.1326008001092, 1845.1141530411428, 1849.1821705320085, 0.026000000000000002, 0.996, 0.16, 192.0, 0.0, 0.0, 0.0, 0.0, 0.0, 0.0, 0.0, 0.0, 0.0, 1.645905777188128E9, 0.0, 2022-02-26 15:02:57.188"
"2.0, 1845.203560018964, 1842.3201849842294, 1849.360984487651, 1844.3094902407518, 1844.8682838521343, 1852.0878973111985, 1845.6058914191594, 1849.0704118097321, 0.026000000000000002, 0.996, 0.16, 192.0, 0.0, 0.0, 0.0, 0.0, 0.0, 0.0, 0.0, 0.0, 0.0, 1.645905777194077E9, 0.0, 2022-02-26 15:02:57.194"
"3.0, 1845.0247460633216, 1842.36488847314, 1849.360984487651, 1844.4212489630281, 1844.6894698964918, 1851.9537868444668, 1845.5164844413382, 1848.8245426207236, 0.026000000000000002, 0.996, 0.16, 192.0, 0.0, 0.0, 0.0, 0.0, 0.0, 0.0, 0.0, 0.0, 0.0, 1.645905777194086E9, 0.0, 2022-02-26 15:02:57.194"
"4.0, 1845.0247460633216, 1842.2531297508633, 1849.5174466988383, 1844.4659524519388, 1844.778876874313, 1851.8643798666455, 1845.6729466525253, 1849.137467043098, 0.026000000000000002, 0.996, 0.16, 192.0, 0.0, 0.0, 0.0, 0.0, 0.0, 0.0, 0.0, 0.0, 0.0, 1.64590577720008E9, 0.0, 2022-02-26 15:02:57.200"
"5.0, 1845.1141530411428, 1842.1860745174974, 1849.3386327431958, 1844.331841985207, 1844.9800425744108, 1851.8420281221902, 1845.561187930249, 1849.293929254285, 0.026000000000000002, 0.996, 0.16, 192.0, 0.0, 0.0, 0.0, 0.0, 0.0, 0.0, 0.0, 0.0, 0.0, 1.645905777200089E9, 0.0, 2022-02-26 15:02:57.200"
"6.0, 1845.2929669967853, 1842.3425367286845, 1849.2492257653746, 1844.5777111742154, 1845.2259117634192, 1851.976138588922, 1845.4047257190616, 1849.293929254285, 0.026000000000000002, 0.996, 0.16, 192.0, 0.0, 0.0, 0.0, 0.0, 0.0, 0.0, 0.0, 0.0, 0.0, 1.645905777207776E9, 0.0, 2022-02-26 15:02:57.207"
"7.0, 1845.1141530411428, 1842.3201849842294, 1849.0257083208214, 1844.5106559408493, 1845.1141530411428, 1851.8643798666455, 1845.4494292079723, 1849.360984487651, 0.026000000000000002, 0.996, 0.16, 192.0, 0.0, 0.0, 0.0, 0.0, 0.0, 0.0, 0.0, 0.0, 0.0, 1.645905777207785E9, 0.0, 2022-02-26 15:02:57.207"
"8.0, 1845.069449552232, 1842.3425367286845, 1849.2715775098297, 1844.4212489630281, 1844.8682838521343, 1852.1549525445644, 1845.7623536303465, 1849.4056879765617, 0.024, 0.98, 0.176, 192.0, 0.0, 192.0, 30.0, 160.0, 5.0, 128.0, 0.0, 0.0, 0.0, 1.645905777215053E9, 0.0, 2022-02-26 15:02:57.215"
"9.0, 1845.1588565300533, 1842.4095919620506, 1849.2492257653746, 1844.55535942976, 1844.778876874313, 1851.9314351000114, 1845.6058914191594, 1849.4056879765617, 0.024, 0.98, 0.176, 192.0, 0.0, 0.0, 0.0, 0.0, 0.0, 0.0, 0.0, 0.0, 0.0, 1.645905777221976E9, 0.0, 2022-02-26 15:02:57.221"
"10.0, 1845.0470978077767, 1842.2531297508633, 1849.4056879765617, 1844.5330076853047, 1845.1588565300533, 1851.9314351000114, 1845.2482635078745, 1849.2045222764639, 0.024, 0.98, 0.176, 192.0, 0.0, 0.0, 0.0, 0.0, 0.0, 0.0, 0.0, 0.0, 0.0, 1.645905777221995E9, 0.0, 2022-02-26 15:02:57.221"
"11.0, 1845.2482635078745, 1842.4095919620506, 1849.2492257653746, 1844.264786751841, 1845.203560018964, 1851.9984903333773, 1845.3153187412404, 1849.1151152986426, 0.024, 0.98, 0.176, 192.0, 0.0, 0.0, 0.0, 0.0, 0.0, 0.0, 0.0, 0.0, 0.0, 1.645905777229353E9, 0.0, 2022-02-26 15:02:57.229"
"12.0, 1845.136504785598, 1842.3201849842294, 1849.1151152986426, 1844.3541937296623, 1845.1812082745087, 1852.0208420778326, 1845.0470978077767, 1849.3386327431958, 0.024, 0.98, 0.176, 192.0, 0.0, 0.0, 0.0, 0.0, 0.0, 0.0, 0.0, 0.0, 0.0, 1.645905777229363E9, 0.0, 2022-02-26 15:02:57.229"
"13.0, 1845.0918012966874, 1842.2754814953187, 1849.1151152986426, 1844.5777111742154, 1844.9353390855003, 1851.8867316111007, 1845.203560018964, 1849.1598187875534, 0.024, 0.98, 0.176, 192.0, 0.0, 0.0, 0.0, 0.0, 0.0, 0.0, 0.0, 0.0, 0.0, 1.645905777237479E9, 0.0, 2022-02-26 15:02:57.237"
"14.0, 1844.9353390855003, 1842.141371028587, 1849.003356576366, 1844.3765454741176, 1844.756525129858, 1851.5961589331819, 1845.27061525233, 1849.0704118097321, 0.024, 0.98, 0.176, 192.0, 0.0, 0.0, 0.0, 0.0, 0.0, 0.0, 0.0, 0.0, 0.0, 1.645905777237489E9, 0.0, 2022-02-26 15:02:57.237"
"15.0, 1845.0247460633216, 1842.3201849842294, 1849.4056879765617, 1844.4436007074835, 1844.912987341045, 1851.8643798666455, 1845.5388361857936, 1849.0927635541873, 0.024, 0.98, 0.176, 192.0, 0.0, 0.0, 0.0, 0.0, 0.0, 0.0, 0.0, 0.0, 0.0, 1.645905777245362E9, 0.0, 2022-02-26 15:02:57.245"
"16.0, 1845.0247460633216, 1842.1190192841316, 1849.360984487651, 1844.3765454741176, 1844.756525129858, 1851.8643798666455, 1845.5388361857936, 1849.1151152986426, 0.024, 0.98, 0.176, 192.0, 0.0, 0.0, 0.0, 0.0, 0.0, 0.0, 0.0, 0.0, 0.0, 1.645905777245373E9, 0.0, 2022-02-26 15:02:57.245"
"17.0, 1844.778876874313, 1842.2084262619528, 1849.293929254285, 1844.4212489630281, 1844.8906355965896, 1851.976138588922, 1845.5388361857936, 1849.1821705320085, 0.026000000000000002, 0.968, 0.188, 192.0, 0.0, 208.0, 30.0, 64.0, 5.0, 224.0, 0.0, 0.0, 0.0, 1.645905777253539E9, 0.0, 2022-02-26 15:02:57.253"
"18.0, 1845.069449552232, 1842.36488847314, 1849.4727432099276, 1844.4212489630281, 1845.0023943188662, 1852.1549525445644, 1845.6729466525253, 1849.2492257653746, 0.026000000000000002, 0.968, 0.188, 192.0, 0.0, 0.0, 0.0, 0.0, 0.0, 0.0, 0.0, 0.0, 0.0, 1.64590577725355E9, 0.0, 2022-02-26 15:02:57.253"
"19.0, 1845.27061525233, 1842.007260561855, 1849.293929254285, 1844.2871384962964, 1845.0918012966874, 1852.2220077779305, 1845.6729466525253, 1849.2715775098297, 0.026000000000000002, 0.968, 0.188, 192.0, 0.0, 0.0, 0.0, 0.0, 0.0, 0.0, 0.0, 0.0, 0.0, 1.645905777261447E9, 0.0, 2022-02-26 15:02:57.261"
"20.0, 1844.9800425744108, 1842.007260561855, 1849.2045222764639, 1844.55535942976, 1844.8682838521343, 1851.8643798666455, 1845.7623536303465, 1849.4503914654722, 0.026000000000000002, 0.968, 0.188, 192.0, 0.0, 0.0, 0.0, 0.0, 0.0, 0.0, 0.0, 0.0, 0.0, 1.645905777261457E9, 0.0, 2022-02-26 15:02:57.261"
"21.0, 1844.9353390855003, 1842.2084262619528, 1849.2492257653746, 1844.5330076853047, 1844.912987341045, 1852.0208420778326, 1845.4047257190616, 1849.4503914654722, 0.026000000000000002, 0.968, 0.188, 192.0, 0.0, 0.0, 0.0, 0.0, 0.0, 0.0, 0.0, 0.0, 0.0, 1.645905777269714E9, 0.0, 2022-02-26 15:02:57.269"
"22.0, 1844.7118216409472, 1842.2084262619528, 1849.360984487651, 1844.4883041963942, 1845.0918012966874, 1851.8196763777348, 1845.4941326968828, 1849.2715775098297, 0.026000000000000002, 0.968, 0.188, 192.0, 0.0, 0.0, 0.0, 0.0, 0.0, 0.0, 0.0, 0.0, 0.0, 1.64590577726973E9, 0.0, 2022-02-26 15:02:57.269"
"23.0, 1845.1141530411428, 1842.2307780064082, 1849.3833362321063, 1844.4212489630281, 1844.9353390855003, 1851.9314351000114, 1845.6505949080702, 1848.8915978540897, 0.026000000000000002, 0.968, 0.188, 192.0, 0.0, 0.0, 0.0, 0.0, 0.0, 0.0, 0.0, 0.0, 0.0, 1.645905777276647E9, 0.0, 2022-02-26 15:02:57.276"
"24.0, 1845.1588565300533, 1842.0743157952209, 1849.293929254285, 1844.4436007074835, 1844.778876874313, 1851.976138588922, 1845.5388361857936, 1848.846894365179, 0.026000000000000002, 0.968, 0.188, 192.0, 0.0, 0.0, 0.0, 0.0, 0.0, 0.0, 0.0, 0.0, 0.0, 1.645905777283092E9, 0.0, 2022-02-26 15:02:57.283"
"25.0, 1845.2259117634192, 1842.4095919620506, 1849.3386327431958, 1844.756525129858, 1844.756525129858, 1852.0208420778326, 1845.583539674704, 1849.1151152986426, 0.026000000000000002, 0.968, 0.188, 192.0, 0.0, 0.0, 0.0, 0.0, 0.0, 0.0, 0.0, 0.0, 0.0, 1.645905777283104E9, 0.0, 2022-02-26 15:02:57.283"
"26.0, 1845.0470978077767, 1842.3201849842294, 1849.137467043098, 1844.3765454741176, 1844.9800425744108, 1852.1549525445644, 1845.7623536303465, 1849.360984487651, 0.026000000000000002, 0.968, 0.188, 192.0, 0.0, 0.0, 0.0, 0.0, 0.0, 0.0, 0.0, 0.0, 0.0, 1.64590577729077E9, 0.0, 2022-02-26 15:02:57.290"
"27.0, 1845.1588565300533, 1842.141371028587, 1849.0257083208214, 1844.398897218573, 1844.8235803632238, 1852.199656033475, 1845.561187930249, 1849.293929254285, 0.026000000000000002, 0.978, 0.198, 192.0, 0.0, 208.0, 30.0, 144.0, 6.0, 48.0, 0.0, 0.0, 0.0, 1.645905777290788E9, 0.0, 2022-02-26 15:02:57.290"
"28.0, 1845.136504785598, 1842.2307780064082, 1849.0704118097321, 1844.4659524519388, 1844.8906355965896, 1852.2443595223856, 1845.4717809524277, 1849.1821705320085, 0.026000000000000002, 0.978, 0.198, 192.0, 0.0, 0.0, 0.0, 0.0, 0.0, 0.0, 0.0, 0.0, 0.0, 1.645905777299524E9, 0.0, 2022-02-26 15:02:57.299"
"29.0, 1845.0023943188662, 1842.2084262619528, 1849.293929254285, 1844.3094902407518, 1845.0023943188662, 1852.1102490556539, 1845.427077463517, 1849.0480600652768, 0.026000000000000002, 0.978, 0.198, 192.0, 0.0, 0.0, 0.0, 0.0, 0.0, 0.0, 0.0, 0.0, 0.0, 1.645905777299533E9, 0.0, 2022-02-26 15:02:57.299"
"30.0, 1845.0023943188662, 1842.2084262619528, 1849.0704118097321, 1844.3541937296623, 1844.9800425744108, 1852.1102490556539, 1845.5388361857936, 1849.2268740209192, 0.026000000000000002, 0.978, 0.198, 192.0, 0.0, 0.0, 0.0, 0.0, 0.0, 0.0, 0.0, 0.0, 0.0, 1.645905777307638E9, 0.0, 2022-02-26 15:02:57.307"
"31.0, 1845.203560018964, 1842.0743157952209, 1849.1598187875534, 1844.4659524519388, 1845.0023943188662, 1851.976138588922, 1845.4047257190616, 1849.4056879765617, 0.026000000000000002, 0.978, 0.198, 192.0, 0.0, 0.0, 0.0, 0.0, 0.0, 0.0, 0.0, 0.0, 0.0, 1.645905777307646E9, 0.0, 2022-02-26 15:02:57.307"
"32.0, 1845.203560018964, 1842.1860745174974, 1849.1151152986426, 1844.4883041963942, 1844.8235803632238, 1851.9314351000114, 1845.5388361857936, 1849.3386327431958, 0.026000000000000002, 0.978, 0.198, 192.0, 0.0, 0.0, 0.0, 0.0, 0.0, 0.0, 0.0, 0.0, 0.0, 1.645905777313977E9, 0.0, 2022-02-26 15:02:57.313"
"33.0, 1845.0918012966874, 1842.2531297508633, 1849.2268740209192, 1844.5330076853047, 1844.8682838521343, 1851.8196763777348, 1845.4717809524277, 1849.293929254285, 0.026000000000000002, 0.978, 0.198, 192.0, 0.0, 0.0, 0.0, 0.0, 0.0, 0.0, 0.0, 0.0, 0.0, 1.645905777313995E9, 0.0, 2022-02-26 15:02:57.313"
"34.0, 1844.9353390855003, 1842.4989989398719, 1849.360984487651, 1844.4436007074835, 1844.9353390855003, 1851.909083355556, 1845.561187930249, 1849.2268740209192, 0.026000000000000002, 0.978, 0.198, 192.0, 0.0, 0.0, 0.0, 0.0, 0.0, 0.0, 0.0, 0.0, 0.0, 1.645905777320827E9, 0.0, 2022-02-26 15:02:57.320"
"35.0, 1844.8682838521343, 1842.1190192841316, 1849.4727432099276, 1844.3765454741176, 1845.203560018964, 1852.0208420778326, 1845.6058914191594, 1849.1821705320085, 0.026000000000000002, 0.978, 0.198, 192.0, 0.0, 0.0, 0.0, 0.0, 0.0, 0.0, 0.0, 0.0, 0.0, 1.645905777320837E9, 0.0, 2022-02-26 15:02:57.320"
"36.0, 1844.8682838521343, 1842.0966675396762, 1849.360984487651, 1844.331841985207, 1845.0023943188662, 1851.976138588922, 1845.427077463517, 1849.137467043098, 0.026000000000000002, 0.978, 0.198, 192.0, 0.0, 0.0, 0.0, 0.0, 0.0, 0.0, 0.0, 0.0, 0.0, 1.645905777328219E9, 0.0, 2022-02-26 15:02:57.328"
"37.0, 1845.0918012966874, 1842.2531297508633, 1849.2045222764639, 1844.1977315184752, 1844.8012286187684, 1851.7973246332795, 1845.3376704856958, 1849.003356576366, 0.026000000000000002, 0.972, 0.198, 192.0, 0.0, 208.0, 30.0, 96.0, 6.0, 48.0, 0.0, 0.0, 0.0, 1.64590577732823E9, 0.0, 2022-02-26 15:02:57.328"
"38.0, 1845.3823739746065, 1842.141371028587, 1849.2268740209192, 1844.3094902407518, 1844.8235803632238, 1852.0208420778326, 1845.717650141436, 1848.9586530874556, 0.026000000000000002, 0.972, 0.198, 192.0, 0.0, 0.0, 0.0, 0.0, 0.0, 0.0, 0.0, 0.0, 0.0, 1.645905777335635E9, 0.0, 2022-02-26 15:02:57.335"
"39.0, 1845.069449552232, 1842.2307780064082, 1849.2715775098297, 1844.0859727961986, 1845.0023943188662, 1852.0655455667431, 1845.7623536303465, 1849.360984487651, 0.026000000000000002, 0.972, 0.198, 192.0, 0.0, 0.0, 0.0, 0.0, 0.0, 0.0, 0.0, 0.0, 0.0, 1.645905777343427E9, 0.0, 2022-02-26 15:02:57.343"
"40.0, 1845.069449552232, 1842.3425367286845, 1849.3386327431958, 1844.2200832629305, 1844.8012286187684, 1852.0208420778326, 1845.5164844413382, 1849.2268740209192, 0.026000000000000002, 0.972, 0.198, 192.0, 0.0, 0.0, 0.0, 0.0, 0.0, 0.0, 0.0, 0.0, 0.0, 1.645905777343438E9, 0.0, 2022-02-26 15:02:57.343"
"41.0, 1845.069449552232, 1842.4766471954165, 1849.003356576366, 1844.2424350073857, 1844.6671181520367, 1851.8420281221902, 1845.6058914191594, 1848.6904321539919, 0.026000000000000002, 0.972, 0.198, 192.0, 0.0, 0.0, 0.0, 0.0, 0.0, 0.0, 0.0, 0.0, 0.0, 1.645905777351322E9, 0.0, 2022-02-26 15:02:57.351"
"42.0, 1845.3153187412404, 1842.0966675396762, 1849.137467043098, 1844.3094902407518, 1844.7341733854025, 1851.618510677637, 1845.6058914191594, 1849.2045222764639, 0.026000000000000002, 0.972, 0.198, 192.0, 0.0, 0.0, 0.0, 0.0, 0.0, 0.0, 0.0, 0.0, 0.0, 1.645905777351332E9, 0.0, 2022-02-26 15:02:57.351"
"43.0, 1844.9576908299555, 1842.141371028587, 1849.2492257653746, 1844.331841985207, 1844.8906355965896, 1851.8643798666455, 1845.6058914191594, 1849.5397984432934, 0.026000000000000002, 0.972, 0.198, 192.0, 0.0, 0.0, 0.0, 0.0, 0.0, 0.0, 0.0, 0.0, 0.0, 1.645905777357749E9, 0.0, 2022-02-26 15:02:57.357"
"44.0, 1844.6447664075813, 1842.163722773042, 1849.4056879765617, 1844.55535942976, 1845.1588565300533, 1851.8643798666455, 1845.8517606081678, 1849.2492257653746, 0.026000000000000002, 0.972, 0.198, 192.0, 0.0, 0.0, 0.0, 0.0, 0.0, 0.0, 0.0, 0.0, 0.0, 1.645905777357769E9, 0.0, 2022-02-26 15:02:57.357"
"45.0, 1844.8682838521343, 1842.0743157952209, 1849.360984487651, 1844.5777111742154, 1845.0247460633216, 1851.752621144369, 1845.6282431636148, 1849.0704118097321, 0.026000000000000002, 0.972, 0.198, 192.0, 0.0, 0.0, 0.0, 0.0, 0.0, 0.0, 0.0, 0.0, 0.0, 1.645905777364492E9, 0.0, 2022-02-26 15:02:57.364"
"46.0, 1845.203560018964, 1842.4319437065058, 1849.360984487651, 1844.6447664075813, 1845.0470978077767, 1851.909083355556, 1845.717650141436, 1849.0704118097321, 0.026000000000000002, 0.972, 0.198, 192.0, 0.0, 0.0, 0.0, 0.0, 0.0, 0.0, 0.0, 0.0, 0.0, 1.645905777364501E9, 0.0, 2022-02-26 15:02:57.364"
"47.0, 1844.9353390855003, 1842.1860745174974, 1849.3386327431958, 1844.264786751841, 1844.9576908299555, 1851.6632141665477, 1845.4047257190616, 1849.003356576366, 0.022, 0.962, 0.20800000000000002, 192.0, 0.0, 176.0, 30.0, 16.0, 6.0, 128.0, 0.0, 0.0, 0.0, 1.645905777372705E9, 0.0, 2022-02-26 15:02:57.372"
"48.0, 1845.0023943188662, 1842.297833239774, 1849.360984487651, 1844.4212489630281, 1844.6671181520367, 1851.7973246332795, 1845.3600222301511, 1849.0704118097321, 0.022, 0.962, 0.20800000000000002, 192.0, 0.0, 0.0, 0.0, 0.0, 0.0, 0.0, 0.0, 0.0, 0.0, 1.645905777372715E9, 0.0, 2022-02-26 15:02:57.372"
"49.0, 1845.203560018964, 1842.3425367286845, 1849.137467043098, 1844.3765454741176, 1844.7118216409472, 1851.752621144369, 1845.203560018964, 1849.0480600652768, 0.022, 0.962, 0.20800000000000002, 192.0, 0.0, 0.0, 0.0, 0.0, 0.0, 0.0, 0.0, 0.0, 0.0, 1.645905777380587E9, 0.0, 2022-02-26 15:02:57.380"
"50.0, 1845.0918012966874, 1842.2531297508633, 1849.0257083208214, 1844.55535942976, 1844.7118216409472, 1851.8643798666455, 1845.3153187412404, 1849.1151152986426, 0.022, 0.962, 0.20800000000000002, 192.0, 0.0, 0.0, 0.0, 0.0, 0.0, 0.0, 0.0, 0.0, 0.0, 1.645905777380599E9, 0.0, 2022-02-26 15:02:57.380"
"51.0, 1845.0470978077767, 1842.297833239774, 1849.0257083208214, 1844.6671181520367, 1845.0470978077767, 1852.0655455667431, 1845.3153187412404, 1849.2268740209192, 0.022, 0.962, 0.20800000000000002, 192.0, 0.0, 0.0, 0.0, 0.0, 0.0, 0.0, 0.0, 0.0, 0.0, 1.645905777387642E9, 0.0, 2022-02-26 15:02:57.387"
"52.0, 1845.1141530411428, 1842.4095919620506, 1848.8915978540897, 1844.6000629186706, 1844.9800425744108, 1852.1773042890197, 1845.5388361857936, 1849.2045222764639, 0.022, 0.962, 0.20800000000000002, 192.0, 0.0, 0.0, 0.0, 0.0, 0.0, 0.0, 0.0, 0.0, 0.0, 1.645905777387652E9, 0.0, 2022-02-26 15:02:57.387"
"53.0, 1845.0918012966874, 1842.588405917693, 1849.2268740209192, 1844.4436007074835, 1845.1588565300533, 1852.266711266841, 1845.4941326968828, 1849.2715775098297, 0.022, 0.962, 0.20800000000000002, 192.0, 0.0, 0.0, 0.0, 0.0, 0.0, 0.0, 0.0, 0.0, 0.0, 1.645905777394595E9, 0.0, 2022-02-26 15:02:57.394"
"54.0, 1845.0247460633216, 1842.6331094066036, 1849.360984487651, 1844.3094902407518, 1844.8235803632238, 1852.2220077779305, 1845.427077463517, 1849.293929254285, 0.022, 0.962, 0.20800000000000002, 192.0, 0.0, 0.0, 0.0, 0.0, 0.0, 0.0, 0.0, 0.0, 0.0, 1.645905777394603E9, 0.0, 2022-02-26 15:02:57.394"
"55.0, 1845.2259117634192, 1842.4766471954165, 1849.1821705320085, 1844.3765454741176, 1844.912987341045, 1852.0208420778326, 1845.4047257190616, 1849.2045222764639, 0.022, 0.962, 0.20800000000000002, 192.0, 0.0, 0.0, 0.0, 0.0, 0.0, 0.0, 0.0, 0.0, 0.0, 1.645905777402367E9, 0.0, 2022-02-26 15:02:57.402"
"56.0, 1845.2259117634192, 1841.9625570729445, 1849.3833362321063, 1844.3765454741176, 1845.069449552232, 1851.976138588922, 1845.4717809524277, 1849.3386327431958, 0.022, 0.962, 0.20800000000000002, 192.0, 0.0, 0.0, 0.0, 0.0, 0.0, 0.0, 0.0, 0.0, 0.0, 1.645905777410266E9, 0.0, 2022-02-26 15:02:57.410"
"57.0, 1845.2259117634192, 1842.297833239774, 1849.360984487651, 1844.4883041963942, 1844.9800425744108, 1851.909083355556, 1845.6058914191594, 1849.2492257653746, 0.018000000000000002, 0.97, 0.212, 192.0, 0.0, 144.0, 30.0, 80.0, 6.0, 160.0, 0.0, 0.0, 0.0, 1.645905777410276E9, 0.0, 2022-02-26 15:02:57.410"
"58.0, 1845.2482635078745, 1842.2754814953187, 1849.1151152986426, 1844.5106559408493, 1844.9800425744108, 1851.7973246332795, 1845.5388361857936, 1849.0257083208214, 0.018000000000000002, 0.97, 0.212, 192.0, 0.0, 0.0, 0.0, 0.0, 0.0, 0.0, 0.0, 0.0, 0.0, 1.645905777418148E9, 0.0, 2022-02-26 15:02:57.418"
"59.0, 1845.203560018964, 1842.141371028587, 1849.2715775098297, 1844.398897218573, 1845.0247460633216, 1851.8420281221902, 1845.3823739746065, 1849.0257083208214, 0.018000000000000002, 0.97, 0.212, 192.0, 0.0, 0.0, 0.0, 0.0, 0.0, 0.0, 0.0, 0.0, 0.0, 1.645905777418159E9, 0.0, 2022-02-26 15:02:57.418"
"60.0, 1845.0918012966874, 1842.0966675396762, 1849.293929254285, 1844.3765454741176, 1845.27061525233, 1851.909083355556, 1845.427077463517, 1849.0480600652768, 0.018000000000000002, 0.97, 0.212, 192.0, 0.0, 0.0, 0.0, 0.0, 0.0, 0.0, 0.0, 0.0, 0.0, 1.645905777425011E9, 0.0, 2022-02-26 15:02:57.425"
"61.0, 1845.203560018964, 1842.2084262619528, 1848.846894365179, 1844.3765454741176, 1844.8012286187684, 1851.9984903333773, 1845.3376704856958, 1849.0480600652768, 0.018000000000000002, 0.97, 0.212, 192.0, 0.0, 0.0, 0.0, 0.0, 0.0, 0.0, 0.0, 0.0, 0.0, 1.645905777425553E9, 0.0, 2022-02-26 15:02:57.425"
"62.0, 1844.9800425744108, 1842.2307780064082, 1849.1151152986426, 1844.3765454741176, 1845.0023943188662, 1851.8643798666455, 1845.4717809524277, 1849.0257083208214, 0.018000000000000002, 0.97, 0.212, 192.0, 0.0, 0.0, 0.0, 0.0, 0.0, 0.0, 0.0, 0.0, 0.0, 1.64590577743476E9, 0.0, 2022-02-26 15:02:57.434"
"63.0, 1844.8682838521343, 1842.2084262619528, 1849.293929254285, 1844.3094902407518, 1845.0470978077767, 1851.8643798666455, 1845.583539674704, 1848.9363013430002, 0.018000000000000002, 0.97, 0.212, 192.0, 0.0, 0.0, 0.0, 0.0, 0.0, 0.0, 0.0, 0.0, 0.0, 1.645905777434771E9, 0.0, 2022-02-26 15:02:57.434"
"64.0, 1844.912987341045, 1842.2531297508633, 1849.1151152986426, 1844.331841985207, 1844.8906355965896, 1851.7079176554582, 1845.583539674704, 1849.0480600652768, 0.018000000000000002, 0.97, 0.212, 192.0, 0.0, 0.0, 0.0, 0.0, 0.0, 0.0, 0.0, 0.0, 0.0, 1.645905777441672E9, 0.0, 2022-02-26 15:02:57.441"
"65.0, 1845.203560018964, 1842.2531297508633, 1849.0704118097321, 1844.4212489630281, 1844.8235803632238, 1851.5291036998158, 1845.6505949080702, 1849.0480600652768, 0.018000000000000002, 0.97, 0.212, 192.0, 0.0, 0.0, 0.0, 0.0, 0.0, 0.0, 0.0, 0.0, 0.0, 1.645905777441681E9, 0.0, 2022-02-26 15:02:57.441"
"66.0, 1845.203560018964, 1842.3201849842294, 1849.2268740209192, 1844.3094902407518, 1844.7118216409472, 1851.685565911003, 1845.561187930249, 1849.0257083208214, 0.018000000000000002, 0.97, 0.212, 192.0, 0.0, 0.0, 0.0, 0.0, 0.0, 0.0, 0.0, 0.0, 0.0, 1.645905777451795E9, 0.0, 2022-02-26 15:02:57.451"
"67.0, 1845.136504785598, 1842.4095919620506, 1849.495094954383, 1844.041269307288, 1844.8012286187684, 1851.7302693999136, 1845.4494292079723, 1849.1821705320085, 0.024, 0.9580000000000001, 0.21, 192.0, 0.0, 192.0, 29.0, 240.0, 6.0, 144.0, 0.0, 0.0, 0.0, 1.645905777451803E9, 0.0, 2022-02-26 15:02:57.451"
"68.0, 1844.9353390855003, 1842.0296123063104, 1849.360984487651, 1844.1977315184752, 1844.9353390855003, 1851.9984903333773, 1845.3153187412404, 1849.1821705320085, 0.024, 0.9580000000000001, 0.21, 192.0, 0.0, 0.0, 0.0, 0.0, 0.0, 0.0, 0.0, 0.0, 0.0, 1.645905777459453E9, 0.0, 2022-02-26 15:02:57.459"
"69.0, 1845.0247460633216, 1842.2754814953187, 1849.4056879765617, 1844.1977315184752, 1845.1141530411428, 1851.909083355556, 1845.561187930249, 1849.137467043098, 0.024, 0.9580000000000001, 0.21, 192.0, 0.0, 0.0, 0.0, 0.0, 0.0, 0.0, 0.0, 0.0, 0.0, 1.645905777459474E9, 0.0, 2022-02-26 15:02:57.459"
"70.0, 1845.1588565300533, 1842.521350684327, 1849.2715775098297, 1844.2871384962964, 1845.0023943188662, 1852.0655455667431, 1845.6058914191594, 1849.2045222764639, 0.024, 0.9580000000000001, 0.21, 192.0, 0.0, 0.0, 0.0, 0.0, 0.0, 0.0, 0.0, 0.0, 0.0, 1.645905777464069E9, 0.0, 2022-02-26 15:02:57.464"
"71.0, 1845.2259117634192, 1842.3201849842294, 1849.1151152986426, 1844.7118216409472, 1845.0470978077767, 1852.1102490556539, 1845.3600222301511, 1849.6292054211146, 0.024, 0.9580000000000001, 0.21, 192.0, 0.0, 0.0, 0.0, 0.0, 0.0, 0.0, 0.0, 0.0, 0.0, 1.645905777470388E9, 0.0, 2022-02-26 15:02:57.470"
"72.0, 1845.1812082745087, 1842.297833239774, 1849.2492257653746, 1844.5330076853047, 1845.2482635078745, 1852.1326008001092, 1845.5164844413382, 1849.5397984432934, 0.024, 0.9580000000000001, 0.21, 192.0, 0.0, 0.0, 0.0, 0.0, 0.0, 0.0, 0.0, 0.0, 0.0, 1.645905777470403E9, 0.0, 2022-02-26 15:02:57.470"
"73.0, 1845.3153187412404, 1842.0743157952209, 1849.1821705320085, 1844.4883041963942, 1845.1141530411428, 1851.976138588922, 1845.6505949080702, 1849.360984487651, 0.024, 0.9580000000000001, 0.21, 192.0, 0.0, 0.0, 0.0, 0.0, 0.0, 0.0, 0.0, 0.0, 0.0, 1.645905777477132E9, 0.0, 2022-02-26 15:02:57.477"
"74.0, 1845.1141530411428, 1842.1860745174974, 1849.3833362321063, 1844.4436007074835, 1844.8682838521343, 1852.1549525445644, 1845.4941326968828, 1849.3386327431958, 0.024, 0.9580000000000001, 0.21, 192.0, 0.0, 0.0, 0.0, 0.0, 0.0, 0.0, 0.0, 0.0, 0.0, 1.645905777477143E9, 0.0, 2022-02-26 15:02:57.477"
"75.0, 1845.0918012966874, 1842.4766471954165, 1849.3386327431958, 1844.331841985207, 1844.8682838521343, 1852.1773042890197, 1845.4717809524277, 1849.3386327431958, 0.024, 0.9580000000000001, 0.21, 192.0, 0.0, 0.0, 0.0, 0.0, 0.0, 0.0, 0.0, 0.0, 0.0, 1.645905777485389E9, 0.0, 2022-02-26 15:02:57.485"
"76.0, 1845.0918012966874, 1842.297833239774, 1849.137467043098, 1844.4212489630281, 1844.778876874313, 1851.9314351000114, 1845.5388361857936, 1849.360984487651, 0.032, 0.9560000000000001, 0.212, 192.0, 1.0, 0.0, 29.0, 224.0, 6.0, 160.0, 0.0, 0.0, 0.0, 1.645905777485407E9, 0.0, 2022-02-26 15:02:57.485"
"77.0, 1844.8682838521343, 1841.9178535840338, 1849.1598187875534, 1844.331841985207, 1844.8235803632238, 1851.8643798666455, 1845.4047257190616, 1849.0257083208214, 0.032, 0.9560000000000001, 0.212, 192.0, 0.0, 0.0, 0.0, 0.0, 0.0, 0.0, 0.0, 0.0, 0.0, 1.645905777492082E9, 0.0, 2022-02-26 15:02:57.492"
"78.0, 1844.912987341045, 1842.2531297508633, 1849.2268740209192, 1844.331841985207, 1845.0023943188662, 1851.976138588922, 1845.427077463517, 1849.1821705320085, 0.032, 0.9560000000000001, 0.212, 192.0, 0.0, 0.0, 0.0, 0.0, 0.0, 0.0, 0.0, 0.0, 0.0, 1.645905777492091E9, 0.0, 2022-02-26 15:02:57.492"
"79.0, 1844.912987341045, 1842.141371028587, 1849.0480600652768, 1844.398897218573, 1844.8235803632238, 1852.2220077779305, 1845.427077463517, 1849.2268740209192, 0.032, 0.9560000000000001, 0.212, 192.0, 0.0, 0.0, 0.0, 0.0, 0.0, 0.0, 0.0, 0.0, 0.0, 1.645905777501581E9, 0.0, 2022-02-26 15:02:57.501"
"80.0, 1844.8459321076791, 1841.9402053284891, 1849.137467043098, 1844.3541937296623, 1844.8906355965896, 1851.8867316111007, 1845.6058914191594, 1849.2268740209192, 0.032, 0.9560000000000001, 0.212, 192.0, 0.0, 0.0, 0.0, 0.0, 0.0, 0.0, 0.0, 0.0, 0.0, 1.645905777501591E9, 0.0, 2022-02-26 15:02:57.501"
"81.0, 1844.9353390855003, 1842.0743157952209, 1849.1151152986426, 1844.3765454741176, 1845.136504785598, 1851.7749728888243, 1845.583539674704, 1849.2268740209192, 0.032, 0.9560000000000001, 0.212, 192.0, 0.0, 0.0, 0.0, 0.0, 0.0, 0.0, 0.0, 0.0, 0.0, 1.645905777509078E9, 0.0, 2022-02-26 15:02:57.509"
"82.0, 1844.9353390855003, 1842.3425367286845, 1849.0257083208214, 1844.4212489630281, 1845.0470978077767, 1852.0878973111985, 1845.6058914191594, 1849.2045222764639, 0.032, 0.9560000000000001, 0.212, 192.0, 0.0, 0.0, 0.0, 0.0, 0.0, 0.0, 0.0, 0.0, 0.0, 1.645905777509089E9, 0.0, 2022-02-26 15:02:57.509"
"83.0, 1845.1588565300533, 1842.1860745174974, 1849.293929254285, 1844.4212489630281, 1845.203560018964, 1852.1326008001092, 1845.5388361857936, 1849.1821705320085, 0.032, 0.9560000000000001, 0.212, 192.0, 0.0, 0.0, 0.0, 0.0, 0.0, 0.0, 0.0, 0.0, 0.0, 1.645905777515966E9, 0.0, 2022-02-26 15:02:57.515"
"84.0, 1845.1812082745087, 1842.2084262619528, 1849.4503914654722, 1844.2424350073857, 1844.9800425744108, 1851.976138588922, 1845.561187930249, 1849.4503914654722, 0.032, 0.9560000000000001, 0.212, 192.0, 0.0, 0.0, 0.0, 0.0, 0.0, 0.0, 0.0, 0.0, 0.0, 1.64590577751598E9, 0.0, 2022-02-26 15:02:57.515"
"85.0, 1845.2482635078745, 1842.3201849842294, 1849.293929254285, 1844.264786751841, 1844.8235803632238, 1852.199656033475, 1845.4941326968828, 1849.3386327431958, 0.032, 0.9560000000000001, 0.212, 192.0, 0.0, 0.0, 0.0, 0.0, 0.0, 0.0, 0.0, 0.0, 0.0, 1.645905777522067E9, 0.0, 2022-02-26 15:02:57.522"
"86.0, 1844.9576908299555, 1842.3425367286845, 1849.0704118097321, 1844.55535942976, 1844.778876874313, 1852.199656033475, 1845.3153187412404, 1849.137467043098, 0.038, 0.9500000000000001, 0.202, 192.0, 1.0, 48.0, 29.0, 176.0, 6.0, 80.0, 0.0, 0.0, 0.0, 1.645905777529397E9, 0.0, 2022-02-26 15:02:57.529"
"87.0, 1844.756525129858, 1842.1860745174974, 1849.3386327431958, 1844.5106559408493, 1844.8682838521343, 1851.7973246332795, 1845.0470978077767, 1849.293929254285, 0.038, 0.9500000000000001, 0.202, 192.0, 0.0, 0.0, 0.0, 0.0, 0.0, 0.0, 0.0, 0.0, 0.0, 1.645905777529408E9, 0.0, 2022-02-26 15:02:57.529"
"88.0, 1844.8459321076791, 1842.1860745174974, 1849.3833362321063, 1844.3094902407518, 1844.7341733854025, 1851.976138588922, 1845.1588565300533, 1849.2715775098297, 0.038, 0.9500000000000001, 0.202, 192.0, 0.0, 0.0, 0.0, 0.0, 0.0, 0.0, 0.0, 0.0, 0.0, 1.645905777540683E9, 0.0, 2022-02-26 15:02:57.540"
"89.0, 1844.8235803632238, 1842.297833239774, 1849.3386327431958, 1844.3094902407518, 1844.912987341045, 1852.1549525445644, 1845.203560018964, 1849.2268740209192, 0.038, 0.9500000000000001, 0.202, 192.0, 0.0, 0.0, 0.0, 0.0, 0.0, 0.0, 0.0, 0.0, 0.0, 1.645905777540774E9, 0.0, 2022-02-26 15:02:57.540"
"90.0, 1844.8682838521343, 1842.1860745174974, 1849.2492257653746, 1844.1530280295644, 1844.756525129858, 1851.909083355556, 1845.427077463517, 1849.293929254285, 0.038, 0.9500000000000001, 0.202, 192.0, 0.0, 0.0, 0.0, 0.0, 0.0, 0.0, 0.0, 0.0, 0.0, 1.645905777545378E9, 0.0, 2022-02-26 15:02:57.545"
"91.0, 1845.0023943188662, 1842.0743157952209, 1849.137467043098, 1844.041269307288, 1844.6671181520367, 1851.9984903333773, 1845.3823739746065, 1849.2715775098297, 0.038, 0.9500000000000001, 0.202, 192.0, 0.0, 0.0, 0.0, 0.0, 0.0, 0.0, 0.0, 0.0, 0.0, 1.645905777545591E9, 0.0, 2022-02-26 15:02:57.545"
"92.0, 1845.1141530411428, 1842.1190192841316, 1849.0927635541873, 1844.1753797740198, 1844.6894698964918, 1852.043193822288, 1845.427077463517, 1849.0927635541873, 0.038, 0.9500000000000001, 0.202, 192.0, 0.0, 0.0, 0.0, 0.0, 0.0, 0.0, 0.0, 0.0, 0.0, 1.645905777551839E9, 0.0, 2022-02-26 15:02:57.551"
"93.0, 1845.0918012966874, 1842.0966675396762, 1849.293929254285, 1844.4883041963942, 1844.8459321076791, 1851.9537868444668, 1845.4494292079723, 1849.1821705320085, 0.038, 0.9500000000000001, 0.202, 192.0, 0.0, 0.0, 0.0, 0.0, 0.0, 0.0, 0.0, 0.0, 0.0, 1.645905777551848E9, 0.0, 2022-02-26 15:02:57.551"
"94.0, 1844.9576908299555, 1842.1860745174974, 1849.293929254285, 1844.4883041963942, 1844.778876874313, 1852.043193822288, 1845.561187930249, 1849.1821705320085, 0.038, 0.9500000000000001, 0.202, 192.0, 0.0, 0.0, 0.0, 0.0, 0.0, 0.0, 0.0, 0.0, 0.0, 1.64590577756004E9, 0.0, 2022-02-26 15:02:57.560"
"95.0, 1845.1141530411428, 1842.4095919620506, 1849.3833362321063, 1844.5330076853047, 1844.756525129858, 1851.9314351000114, 1845.3153187412404, 1849.0704118097321, 0.038, 0.9500000000000001, 0.202, 192.0, 0.0, 0.0, 0.0, 0.0, 0.0, 0.0, 0.0, 0.0, 0.0, 1.645905777560049E9, 0.0, 2022-02-26 15:02:57.560"
"96.0, 1845.1812082745087, 1842.3201849842294, 1849.3386327431958, 1844.4212489630281, 1845.0918012966874, 1852.043193822288, 1845.2259117634192, 1849.1598187875534, 0.036000000000000004, 0.9580000000000001, 0.2, 192.0, 1.0, 32.0, 29.0, 240.0, 6.0, 64.0, 0.0, 0.0, 0.0, 1.645905777568202E9, 0.0, 2022-02-26 15:02:57.568"
"97.0, 1845.069449552232, 1842.4989989398719, 1849.428039721017, 1844.398897218573, 1844.9353390855003, 1852.2443595223856, 1845.3376704856958, 1849.2492257653746, 0.036000000000000004, 0.9580000000000001, 0.2, 192.0, 0.0, 0.0, 0.0, 0.0, 0.0, 0.0, 0.0, 0.0, 0.0, 1.645905777568221E9, 0.0, 2022-02-26 15:02:57.568"
"98.0, 1845.1812082745087, 1842.2531297508633, 1849.4503914654722, 1844.2871384962964, 1844.8682838521343, 1852.0878973111985, 1845.4941326968828, 1849.137467043098, 0.036000000000000004, 0.9580000000000001, 0.2, 192.0, 0.0, 0.0, 0.0, 0.0, 0.0, 0.0, 0.0, 0.0, 0.0, 1.645905777575699E9, 0.0, 2022-02-26 15:02:57.575"
"99.0, 1845.0470978077767, 1842.1860745174974, 1849.293929254285, 1844.2424350073857, 1844.8906355965896, 1851.9314351000114, 1845.4494292079723, 1849.1821705320085, 0.036000000000000004, 0.9580000000000001, 0.2, 192.0, 0.0, 0.0, 0.0, 0.0, 0.0, 0.0, 0.0, 0.0, 0.0, 1.645905777575755E9, 0.0, 2022-02-26 15:02:57.575"
"100.0, 1845.0470978077767, 1842.2307780064082, 1849.1151152986426, 1844.331841985207, 1845.0470978077767, 1852.0878973111985, 1845.3600222301511, 1849.0480600652768, 0.036000000000000004, 0.9580000000000001, 0.2, 192.0, 0.0, 0.0, 0.0, 0.0, 0.0, 0.0, 0.0, 0.0, 0.0, 1.645905777583222E9, 0.0, 2022-02-26 15:02:57.583"
"101.0, 1844.8682838521343, 1842.36488847314, 1849.293929254285, 1844.2424350073857, 1844.8235803632238, 1852.0655455667431, 1845.6058914191594, 1849.3162809987405, 0.036000000000000004, 0.9580000000000001, 0.2, 192.0, 0.0, 0.0, 0.0, 0.0, 0.0, 0.0, 0.0, 0.0, 0.0, 1.64590577758988E9, 0.0, 2022-02-26 15:02:57.589"
"102.0, 1845.1141530411428, 1842.2531297508633, 1849.5174466988383, 1844.4212489630281, 1844.7341733854025, 1851.8867316111007, 1845.561187930249, 1849.293929254285, 0.036000000000000004, 0.9580000000000001, 0.2, 192.0, 0.0, 0.0, 0.0, 0.0, 0.0, 0.0, 0.0, 0.0, 0.0, 1.645905777589892E9, 0.0, 2022-02-26 15:02:57.589"
"103.0, 1845.2259117634192, 1842.1860745174974, 1849.4056879765617, 1844.6671181520367, 1844.8459321076791, 1852.0878973111985, 1845.6058914191594, 1849.2268740209192, 0.036000000000000004, 0.9580000000000001, 0.2, 192.0, 0.0, 0.0, 0.0, 0.0, 0.0, 0.0, 0.0, 0.0, 0.0, 1.645905777597604E9, 0.0, 2022-02-26 15:02:57.597"
"104.0, 1845.0918012966874, 1842.0296123063104, 1849.4503914654722, 1844.6671181520367, 1845.0023943188662, 1852.0878973111985, 1845.6729466525253, 1849.2715775098297, 0.036000000000000004, 0.9580000000000001, 0.2, 192.0, 0.0, 0.0, 0.0, 0.0, 0.0, 0.0, 0.0, 0.0, 0.0, 1.645905777597616E9, 0.0, 2022-02-26 15:02:57.597"
"105.0, 1845.3153187412404, 1842.0519640507657, 1849.1821705320085, 1844.3765454741176, 1845.1812082745087, 1852.0208420778326, 1845.6058914191594, 1849.2492257653746, 0.036000000000000004, 0.9580000000000001, 0.2, 192.0, 0.0, 0.0, 0.0, 0.0, 0.0, 0.0, 0.0, 0.0, 0.0, 1.64590577760477E9, 0.0, 2022-02-26 15:02:57.604"
"106.0, 1845.2929669967853, 1842.0296123063104, 1849.2268740209192, 1844.4659524519388, 1844.9353390855003, 1852.0878973111985, 1845.4717809524277, 1849.2492257653746, 0.022, 0.986, 0.216, 192.0, 0.0, 176.0, 30.0, 208.0, 6.0, 192.0, 0.0, 0.0, 0.0, 1.645905777604782E9, 0.0, 2022-02-26 15:02:57.604"
"107.0, 1845.27061525233, 1842.297833239774, 1849.4056879765617, 1844.5106559408493, 1844.778876874313, 1852.0655455667431, 1845.6282431636148, 1849.360984487651, 0.022, 0.986, 0.216, 192.0, 0.0, 0.0, 0.0, 0.0, 0.0, 0.0, 0.0, 0.0, 0.0, 1.645905777612191E9, 0.0, 2022-02-26 15:02:57.612"
"108.0, 1845.3823739746065, 1842.4542954509611, 1849.293929254285, 1844.5330076853047, 1844.7118216409472, 1851.9984903333773, 1845.6729466525253, 1849.2492257653746, 0.022, 0.986, 0.216, 192.0, 0.0, 0.0, 0.0, 0.0, 0.0, 0.0, 0.0, 0.0, 0.0, 1.6459057776122E9, 0.0, 2022-02-26 15:02:57.612"
"109.0, 1845.1812082745087, 1842.3425367286845, 1849.2268740209192, 1844.6671181520367, 1845.0023943188662, 1851.8420281221902, 1845.4494292079723, 1849.1151152986426, 0.022, 0.986, 0.216, 192.0, 0.0, 0.0, 0.0, 0.0, 0.0, 0.0, 0.0, 0.0, 0.0, 1.645905777620304E9, 0.0, 2022-02-26 15:02:57.620"
"110.0, 1845.069449552232, 1842.3201849842294, 1849.293929254285, 1844.3094902407518, 1845.2259117634192, 1852.1773042890197, 1845.3376704856958, 1849.2492257653746, 0.022, 0.986, 0.216, 192.0, 0.0, 0.0, 0.0, 0.0, 0.0, 0.0, 0.0, 0.0, 0.0, 1.645905777620312E9, 0.0, 2022-02-26 15:02:57.620"
"111.0, 1845.1588565300533, 1842.3201849842294, 1849.293929254285, 1844.1530280295644, 1845.3376704856958, 1851.9314351000114, 1845.3600222301511, 1849.137467043098, 0.022, 0.986, 0.216, 192.0, 0.0, 0.0, 0.0, 0.0, 0.0, 0.0, 0.0, 0.0, 0.0, 1.645905777627499E9, 0.0, 2022-02-26 15:02:57.627"
"112.0, 1845.136504785598, 1842.1190192841316, 1849.1598187875534, 1844.4436007074835, 1845.0023943188662, 1851.976138588922, 1845.4494292079723, 1849.0927635541873, 0.022, 0.986, 0.216, 192.0, 0.0, 0.0, 0.0, 0.0, 0.0, 0.0, 0.0, 0.0, 0.0, 1.645905777627513E9, 0.0, 2022-02-26 15:02:57.627"
"113.0, 1845.1141530411428, 1842.36488847314, 1849.293929254285, 1844.6000629186706, 1844.8906355965896, 1852.043193822288, 1845.3600222301511, 1849.003356576366, 0.022, 0.986, 0.216, 192.0, 0.0, 0.0, 0.0, 0.0, 0.0, 0.0, 0.0, 0.0, 0.0, 1.645905777634979E9, 0.0, 2022-02-26 15:02:57.634"
"114.0, 1845.2482635078745, 1842.1860745174974, 1849.360984487651, 1844.55535942976, 1844.9800425744108, 1852.0655455667431, 1845.5388361857936, 1849.2492257653746, 0.022, 0.986, 0.216, 192.0, 0.0, 0.0, 0.0, 0.0, 0.0, 0.0, 0.0, 0.0, 0.0, 1.645905777634991E9, 0.0, 2022-02-26 15:02:57.634"
"115.0, 1845.1141530411428, 1842.0966675396762, 1849.3833362321063, 1844.4212489630281, 1844.8906355965896, 1851.909083355556, 1845.4941326968828, 1849.4056879765617, 0.022, 0.986, 0.216, 192.0, 0.0, 0.0, 0.0, 0.0, 0.0, 0.0, 0.0, 0.0, 0.0, 1.645905777642225E9, 0.0, 2022-02-26 15:02:57.642"
"116.0, 1845.2259117634192, 1842.36488847314, 1849.2492257653746, 1844.6447664075813, 1844.8906355965896, 1851.8420281221902, 1845.6058914191594, 1849.3386327431958, 0.018000000000000002, 0.966, 0.216, 192.0, 0.0, 144.0, 30.0, 48.0, 6.0, 192.0, 0.0, 0.0, 0.0, 1.645905777642242E9, 0.0, 2022-02-26 15:02:57.642"
"117.0, 1845.069449552232, 1842.0966675396762, 1849.1598187875534, 1844.3094902407518, 1844.9353390855003, 1851.8867316111007, 1845.3376704856958, 1849.1821705320085, 0.018000000000000002, 0.966, 0.216, 192.0, 0.0, 0.0, 0.0, 0.0, 0.0, 0.0, 0.0, 0.0, 0.0, 1.645905777650238E9, 0.0, 2022-02-26 15:02:57.650"
"118.0, 1844.9353390855003, 1842.1860745174974, 1849.1151152986426, 1844.1530280295644, 1845.0918012966874, 1851.8643798666455, 1845.3600222301511, 1849.137467043098, 0.018000000000000002, 0.966, 0.216, 192.0, 0.0, 0.0, 0.0, 0.0, 0.0, 0.0, 0.0, 0.0, 0.0, 1.645905777659478E9, 0.0, 2022-02-26 15:02:57.659"
"119.0, 1845.069449552232, 1842.2531297508633, 1849.293929254285, 1844.4212489630281, 1845.0470978077767, 1852.1102490556539, 1845.6729466525253, 1849.1598187875534, 0.018000000000000002, 0.966, 0.216, 192.0, 0.0, 0.0, 0.0, 0.0, 0.0, 0.0, 0.0, 0.0, 0.0, 1.645905777659489E9, 0.0, 2022-02-26 15:02:57.659"
"120.0, 1845.1588565300533, 1842.6107576621482, 1849.3162809987405, 1844.6000629186706, 1845.0470978077767, 1852.0208420778326, 1845.5164844413382, 1849.2492257653746, 0.018000000000000002, 0.966, 0.216, 192.0, 0.0, 0.0, 0.0, 0.0, 0.0, 0.0, 0.0, 0.0, 0.0, 1.645905777665792E9, 0.0, 2022-02-26 15:02:57.665"
"121.0, 1845.0470978077767, 1842.3425367286845, 1849.137467043098, 1844.4436007074835, 1845.0023943188662, 1852.0878973111985, 1845.2482635078745, 1849.0480600652768, 0.018000000000000002, 0.966, 0.216, 192.0, 0.0, 0.0, 0.0, 0.0, 0.0, 0.0, 0.0, 0.0, 0.0, 1.645905777665802E9, 0.0, 2022-02-26 15:02:57.665"
"122.0, 1845.136504785598, 1841.8731500951233, 1849.003356576366, 1844.2200832629305, 1844.8235803632238, 1851.7973246332795, 1845.3153187412404, 1849.137467043098, 0.018000000000000002, 0.966, 0.216, 192.0, 0.0, 0.0, 0.0, 0.0, 0.0, 0.0, 0.0, 0.0, 0.0, 1.64590577767311E9, 0.0, 2022-02-26 15:02:57.673"
"123.0, 1845.0023943188662, 1842.0966675396762, 1849.137467043098, 1844.6000629186706, 1844.9800425744108, 1851.685565911003, 1845.2482635078745, 1849.2492257653746, 0.018000000000000002, 0.966, 0.216, 192.0, 0.0, 0.0, 0.0, 0.0, 0.0, 0.0, 0.0, 0.0, 0.0, 1.64590577767312E9, 0.0, 2022-02-26 15:02:57.673"
"124.0, 1225.389686273299, 1222.3722007718327, 1228.9883171306035, 1224.5179682395421, 1225.389686273299, 1232.6092997323633, 1225.2555758065673, 1229.0330206195142, 0.018000000000000002, 0.966, 0.216, 192.0, 0.0, 0.0, 0.0, 0.0, 0.0, 0.0, 0.0, 0.0, 0.0, 1.645905777680747E9, 0.0, 2022-02-26 15:02:57.680"
"125.0, -1267.455669338187, -1270.003768206092, -1265.0863844259245, -1269.2214571501563, -1265.913398970771, -1259.3866895898211, -1267.7909455050167, -1264.974625703648, 0.018000000000000002, 0.966, 0.216, 192.0, 0.0, 0.0, 0.0, 0.0, 0.0, 0.0, 0.0, 0.0, 0.0, 1.645905777680762E9, 0.0, 2022-02-26 15:02:57.680"
"126.0, -1893.6844937425249, -1896.6349240106256, -1891.8963541861003, -1895.9196681880558, -1892.3433890752065, -1885.973141905444, -1894.2879908428183, -1892.008112908377, 0.012, 0.962, 0.212, 192.0, 0.0, 96.0, 30.0, 16.0, 6.0, 160.0, 0.0, 0.0, 0.0, 1.645905777687185E9, 0.0, 2022-02-26 15:02:57.687"
"127.0, -1893.5056797868824, -1896.5902205217149, -1891.9187059305557, -1895.8079094657792, -1892.4998512863938, -1885.7719762053462, -1894.0868251427205, -1892.455147797483, 0.012, 0.962, 0.212, 192.0, 0.0, 0.0, 0.0, 0.0, 0.0, 0.0, 0.0, 0.0, 0.0, 1.645905777687193E9, 0.0, 2022-02-26 15:02:57.687"
"128.0, -1893.6621419980697, -1896.7690344773573, -1891.8292989527345, -1895.6737989990472, -1892.3880925641172, -1885.682569227525, -1894.0197699093546, -1892.4327960530277, 0.012, 0.962, 0.212, 192.0, 0.0, 0.0, 0.0, 0.0, 0.0, 0.0, 0.0, 0.0, 0.0, 1.645905777695236E9, 0.0, 2022-02-26 15:02:57.695"
"129.0, -1893.773900720346, -1896.6125722661702, -1891.7175402304579, -1895.6961507435026, -1892.1869268640194, -1885.5708105052486, -1893.9527146759885, -1892.164575119564, 0.012, 0.962, 0.212, 192.0, 0.0, 0.0, 0.0, 0.0, 0.0, 0.0, 0.0, 0.0, 0.0, 1.645905777695245E9, 0.0, 2022-02-26 15:02:57.695"
"130.0, -1893.9527146759885, -1896.4114065660724, -1891.8516506971898, -1895.8526129546897, -1891.941057675011, -1885.7943279498015, -1894.2879908428183, -1892.164575119564, 0.012, 0.962, 0.212, 192.0, 0.0, 0.0, 0.0, 0.0, 0.0, 0.0, 0.0, 0.0, 0.0, 1.64590577770337E9, 0.0, 2022-02-26 15:02:57.703"
"131.0, -1893.6844937425249, -1896.1208338881534, -1891.941057675011, -1895.584392021226, -1892.2092786084747, -1885.7719762053462, -1894.3997495650947, -1892.1422233751089, 0.012, 0.962, 0.212, 192.0, 0.0, 0.0, 0.0, 0.0, 0.0, 0.0, 0.0, 0.0, 0.0, 1.645905777703386E9, 0.0, 2022-02-26 15:02:57.703"
"132.0, -1893.7068454869802, -1896.7690344773573, -1891.8292989527345, -1895.5396885323155, -1892.455147797483, -1885.9284384165335, -1894.3326943317288, -1892.3880925641172, 0.012, 0.962, 0.212, 192.0, 0.0, 0.0, 0.0, 0.0, 0.0, 0.0, 0.0, 0.0, 0.0, 1.64590577771034E9, 0.0, 2022-02-26 15:02:57.710"
"133.0, -1893.5950867647036, -1896.523165288349, -1891.8740024416452, -1895.874964699145, -1892.6563134975809, -1885.749624460891, -1894.0644733982651, -1892.164575119564, 0.012, 0.962, 0.212, 192.0, 0.0, 0.0, 0.0, 0.0, 0.0, 0.0, 0.0, 0.0, 0.0, 1.64590577771698E9, 0.0, 2022-02-26 15:02:57.716"
"134.0, -1893.5503832757931, -1896.389054821617, -1891.784595463824, -1896.009075165877, -1892.4998512863938, -1885.6602174830698, -1893.9974181648993, -1891.9857611639216, 0.012, 0.962, 0.212, 192.0, 0.0, 0.0, 0.0, 0.0, 0.0, 0.0, 0.0, 0.0, 0.0, 1.645905777716993E9, 0.0, 2022-02-26 15:02:57.716"
"135.0, -1893.6844937425249, -1896.4114065660724, -1891.941057675011, -1895.8973164436004, -1892.0975198861981, -1885.3696448051508, -1893.9303629315334, -1892.0751681417428, 0.004, 0.9560000000000001, 0.20400000000000001, 192.0, 0.0, 32.0, 29.0, 224.0, 6.0, 96.0, 0.0, 0.0, 0.0, 1.645905777724828E9, 0.0, 2022-02-26 15:02:57.724"
"136.0, -1893.7962524648015, -1896.3443513327065, -1891.7622437193686, -1895.718502487958, -1892.3433890752065, -1885.5708105052486, -1894.2432873539076, -1892.2763338418406, 0.004, 0.9560000000000001, 0.20400000000000001, 192.0, 0.0, 0.0, 0.0, 0.0, 0.0, 0.0, 0.0, 0.0, 0.0, 1.645905777724837E9, 0.0, 2022-02-26 15:02:57.724"
"137.0, -1893.8186042092568, -1896.366703077162, -1891.7398919749132, -1895.8079094657792, -1892.589258264215, -1885.682569227525, -1894.3550460761842, -1892.1198716306535, 0.004, 0.9560000000000001, 0.20400000000000001, 192.0, 0.0, 0.0, 0.0, 0.0, 0.0, 0.0, 0.0, 0.0, 0.0, 1.645905777733065E9, 0.0, 2022-02-26 15:02:57.733"
